Sample Index,EXG Channel 0,EXG Channel 1,EXG Channel 2,EXG Channel 3,EXG Channel 4,EXG Channel 5,EXG Channel 6,EXG Channel 7,Accel Channel 0,Accel Channel 1,Accel Channel 2,Not Used,Digital Channel 0 (D11),Digital Channel 1 (D12),Digital Channel 2 (D13),Digital Channel 3 (D17),Not Used,Digital Channel 4 (D18),Analog Channel 0,Analog Channel 1,Analog Channel 2,Timestamp,Marker Channel,Timestamp (Formatted),Stimulus_Direction,Stimulus_Number
155.0,11963.815923192016,1029.4319426336222,-57962.00727963535,-54536.624793603994,-33241.96138882177,-30491.981564996433,-7043.369954034085,-20388.188408397247,0.0,0.0,0.0,193.0,1.0,155.0,0.0,10.0,3.0,251.0,411.0,10.0,1019.0,1744252854.0654607,0.0,2025-04-09 22:40:54.065,STOP,35
156.0,11891.239808945635,1002.3639800982452,-58010.421158125544,-54610.49730902878,-33281.72514220776,-30526.202085757508,-7114.180280468498,-20424.733510581675,0.0,0.0,0.0,193.0,1.0,155.0,0.0,9.0,3.0,250.0,411.0,9.0,1018.0,1744252854.0654752,0.0,2025-04-09 22:40:54.065,STOP,35
157.0,11938.491396724154,998.5418317963877,-57995.02080619583,-54538.79291281616,-33316.30329088012,-30567.32929555527,-7006.288409982731,-20450.303906238547,0.0,0.0,0.0,193.0,1.0,155.0,0.0,8.0,3.0,251.0,411.0,8.0,1019.0,1744252854.0654838,0.0,2025-04-09 22:40:54.065,STOP,35
158.0,12021.997514009181,1027.1744164436361,-57988.471745070434,-54591.20775356385,-33281.34516255202,-30522.983434555943,-7161.029536846821,-20427.08044374948,0.0,0.0,0.0,193.0,1.0,155.0,0.0,7.0,3.0,251.0,411.0,7.0,1019.0,1744252854.0654929,0.0,2025-04-09 22:40:54.065,STOP,35
159.0,11967.36985056041,1024.626317575731,-57961.40378253505,-54542.21272971782,-33247.236400513226,-30495.490788875915,-7076.718756761403,-20403.07467020448,0.0,0.0,0.0,193.0,1.0,155.0,0.0,7.0,3.0,251.0,411.0,7.0,1019.0,1744252854.0655015,0.0,2025-04-09 22:40:54.065,STOP,35
160.0,11902.169811984279,1013.338686625801,-58007.33661739071,-54602.830660680615,-33275.44430201582,-30521.105888021695,-7086.486469088372,-20429.717949595208,0.0,0.0,0.0,193.0,1.0,154.0,0.0,7.0,3.0,249.0,410.0,7.0,1017.0,1744252854.0655103,0.0,2025-04-09 22:40:54.065,STOP,35
161.0,11919.760634870605,994.8090904723514,-57996.317207374246,-54550.684040866385,-33314.5151513237,-30558.723873939976,-7038.340811531641,-20457.72468539771,0.0,0.0,0.0,193.0,1.0,155.0,0.0,6.0,3.0,251.0,411.0,6.0,1019.0,1744252854.0655189,0.0,2025-04-09 22:40:54.065,STOP,35
162.0,12020.924630275325,1024.402800131178,-57995.06550968475,-54578.82488713561,-33305.2615291192,-30540.909533609098,-7134.766237111836,-20451.779121372598,0.0,0.0,0.0,193.0,1.0,155.0,0.0,6.0,3.0,252.0,411.0,6.0,1020.0,1744252854.0655277,0.0,2025-04-09 22:40:54.065,STOP,35
163.0,11985.295949613566,1039.0208410049488,-57947.59040446168,-54541.13984598397,-33235.43467944082,-30479.30812589027,-7119.7011613489585,-20387.786076997054,0.0,0.0,0.0,193.0,1.0,154.0,0.0,6.0,3.0,250.0,410.0,6.0,1018.0,1744252854.0655365,0.0,2025-04-09 22:40:54.065,STOP,35
164.0,11925.974419829181,1037.3221084263455,-57982.4367740675,-54576.835581879095,-33249.69509240331,-30506.130219236642,-7048.354393047619,-20406.74035629515,0.0,0.0,0.0,193.0,1.0,154.0,0.0,5.0,3.0,249.0,410.0,5.0,1017.0,1744252854.065545,0.0,2025-04-09 22:40:54.065,STOP,35
165.0,11910.55171615502,1003.5709742988319,-57985.878942713614,-54558.08246828109,-33289.12356962247,-30542.13887955414,-7053.629404739071,-20433.42833917479,0.0,0.0,0.0,193.0,1.0,155.0,0.0,5.0,3.0,252.0,411.0,5.0,1020.0,1744252854.065554,0.0,2025-04-09 22:40:54.065,STOP,35
166.0,12015.1355284614,1019.3513058842786,-57998.395919608585,-54564.83269510659,-33316.37034611349,-30563.14951934213,-7075.645873027548,-20462.150330799857,0.0,0.0,0.0,193.0,1.0,154.0,0.0,5.0,3.0,250.0,410.0,5.0,1018.0,1744252854.0655627,0.0,2025-04-09 22:40:54.065,STOP,35
167.0,11978.232798365689,1015.3950471156893,-57970.635052995094,-54575.85210512306,-33256.26650527317,-30501.972794767953,-7188.924513927044,-20416.731586066675,0.0,0.0,0.0,193.0,1.0,154.0,0.0,5.0,3.0,249.0,410.0,5.0,1017.0,1744252854.0655713,0.0,2025-04-09 22:40:54.065,STOP,35
168.0,11932.545832699041,1027.9343757551164,-57984.694300257484,-54567.29138699668,-33258.63579018543,-30505.41496341407,-7058.7703059637915,-20416.28455117757,0.0,0.0,0.0,193.0,1.0,155.0,0.0,5.0,3.0,251.0,411.0,5.0,1019.0,1744252854.0655801,0.0,2025-04-09 22:40:54.065,STOP,35
169.0,11875.481829104643,978.8722966757175,-58014.0421407273,-54597.26507631125,-33306.37911634197,-30552.53244072586,-7110.4251874000065,-20461.166854043826,0.0,0.0,0.0,193.0,1.0,155.0,0.0,4.0,3.0,252.0,411.0,4.0,1020.0,1744252854.3682313,0.0,2025-04-09 22:40:54.368,STOP,35
170.0,11990.548609560563,1000.7099510085525,-58004.02855921132,-54555.60142464655,-33321.62300606049,-30572.693714224544,-7032.909337629001,-20468.699391925264,0.0,0.0,0.0,193.0,1.0,154.0,0.0,4.0,3.0,250.0,410.0,4.0,1018.0,1744252854.3682673,0.0,2025-04-09 22:40:54.368,STOP,35
171.0,11983.127830401401,1009.4494830905776,-57975.59714026417,-54589.95605587436,-33252.71257790477,-30493.814408041766,-7203.877830967645,-20396.860885245907,0.0,0.0,0.0,193.0,1.0,154.0,0.0,4.0,3.0,249.0,410.0,4.0,1017.0,1744252854.368318,0.0,2025-04-09 22:40:54.368,STOP,35
172.0,11926.846137862938,1013.2939831368903,-57991.37747184962,-54568.67719515291,-33265.40836875539,-30514.51212340738,-7047.192102335943,-20413.75880405412,0.0,0.0,0.0,193.0,1.0,155.0,0.0,4.0,3.0,251.0,411.0,4.0,1019.0,1744252854.3683276,0.0,2025-04-09 22:40:54.368,STOP,35
173.0,11867.077573189446,980.2134013430359,-58020.18887045251,-54613.9394776749,-33296.298479592624,-30539.32255975277,-7122.740998594881,-20440.022103789106,0.0,0.0,0.0,193.0,1.0,154.0,0.0,4.0,3.0,249.0,410.0,4.0,1017.0,1744252854.368337,0.0,2025-04-09 22:40:54.368,STOP,35
174.0,11963.681812725285,996.2843056064017,-58011.136413948116,-54548.69473560986,-33329.0661369641,-30571.173795601586,-7001.505136669295,-20455.802435374553,0.0,0.0,0.0,193.0,1.0,154.0,0.0,4.0,3.0,251.0,410.0,4.0,1019.0,1744252854.3683465,0.0,2025-04-09 22:40:54.368,STOP,35
175.0,11982.859609467938,1008.0860266788038,-57998.99941670888,-54613.42538755243,-33271.39863626941,-30506.5996058702,-7216.886546240634,-20410.584856341466,0.0,0.0,0.0,193.0,1.0,155.0,0.0,4.0,3.0,252.0,411.0,4.0,1020.0,1744252854.3683553,0.0,2025-04-09 22:40:54.368,STOP,35
176.0,11933.529309455074,1014.3668668707451,-57990.72927126042,-54562.9775003168,-33262.41323499838,-30508.611262871178,-7041.827683666669,-20407.008577228615,0.0,0.0,0.0,193.0,1.0,154.0,0.0,4.0,3.0,250.0,410.0,4.0,1018.0,1744252854.3683643,0.0,2025-04-09 22:40:54.368,STOP,35
177.0,11875.012442471081,991.1434043816811,-58019.33950416321,-54620.71205624486,-33284.474406775764,-30524.14572526762,-7110.447539144461,-20425.202897215237,0.0,0.0,0.0,193.0,1.0,154.0,0.0,4.0,3.0,251.0,410.0,4.0,1019.0,1744252854.368373,0.0,2025-04-09 22:40:54.368,STOP,35
178.0,11946.023934605591,993.6020962717648,-58004.60970456716,-54543.486779151775,-33324.97576772878,-30567.91044091111,-6986.752985328792,-20460.13867379888,0.0,0.0,0.0,193.0,1.0,155.0,0.0,4.0,3.0,251.0,411.0,4.0,1019.0,1744252854.368382,0.0,2025-04-09 22:40:54.368,STOP,35
179.0,11993.700205528761,1007.0131429449491,-58005.36966387864,-54617.783977721214,-33287.983630655246,-30521.37410895516,-7209.398711848106,-20435.015313031116,0.0,0.0,0.0,193.0,1.0,154.0,0.0,4.0,3.0,250.0,410.0,4.0,1018.0,1744252854.3683908,0.0,2025-04-09 22:40:54.368,STOP,35
180.0,11949.376696273888,1020.982983229516,-57973.20550360746,-54552.06984902261,-33251.59499068201,-30496.854245287686,-7062.994785665845,-20406.38272838387,0.0,0.0,0.0,193.0,1.0,154.0,0.0,3.0,3.0,251.0,410.0,3.0,1019.0,1744252854.3683996,0.0,2025-04-09 22:40:54.368,STOP,35
181.0,11878.901646006305,999.4359015746,-58017.976047751436,-54621.11438764506,-33280.11581660698,-30519.585969398737,-7103.317332663219,-20421.537211124567,0.0,0.0,0.0,193.0,1.0,155.0,0.0,3.0,3.0,252.0,411.0,3.0,1020.0,1744252854.3684082,0.0,2025-04-09 22:40:54.368,STOP,35
182.0,11926.756730885118,987.8576979467509,-58003.022730710836,-54551.46635192232,-33318.247892647734,-30561.830766419265,-7011.809290863192,-20458.462292964734,0.0,0.0,0.0,193.0,1.0,154.0,0.0,3.0,3.0,249.0,410.0,3.0,1017.0,1744252854.3684173,0.0,2025-04-09 22:40:54.368,STOP,35
183.0,12007.223010924223,1013.2045761590691,-58004.073262700236,-54604.06000662566,-33294.420933058376,-30527.766707869378,-7160.582501957715,-20439.79858634455,0.0,0.0,0.0,193.0,1.0,154.0,0.0,3.0,3.0,249.0,410.0,3.0,1017.0,1744252854.3684256,0.0,2025-04-09 22:40:54.368,STOP,35
184.0,11962.430115035786,1025.8333117763177,-57963.52719825831,-54550.41581993292,-33242.900162088896,-30485.924242249042,-7085.9723789659,-20399.476039347177,0.0,0.0,0.0,193.0,1.0,155.0,0.0,3.0,3.0,252.0,411.0,3.0,1020.0,1744252854.3684347,0.0,2025-04-09 22:40:54.368,STOP,35
185.0,11898.191201471234,1010.0976836797814,-58009.90706800307,-54612.8889456855,-33274.08084560405,-30525.17390551256,-7083.848963242646,-20445.297115480556,0.0,0.0,0.0,193.0,1.0,154.0,0.0,3.0,3.0,250.0,410.0,3.0,1018.0,1744252854.3684433,0.0,2025-04-09 22:40:54.368,STOP,35
186.0,11899.778175327561,976.6818257190974,-58014.08684421621,-54580.65773018095,-33325.4675061068,-30573.25250783593,-7061.787791465258,-20487.58661599,0.0,0.0,0.0,193.0,1.0,154.0,0.0,3.0,3.0,249.0,410.0,3.0,1017.0,1744252854.3684573,0.0,2025-04-09 22:40:54.368,STOP,35
187.0,12000.85276375446,1001.8275382313178,-58011.20346918148,-54596.61687572204,-33317.84556124754,-30543.502335965914,-7122.048094516766,-20443.19605150176,0.0,0.0,0.0,193.0,1.0,155.0,0.0,3.0,3.0,251.0,411.0,3.0,1019.0,1744252854.3684661,0.0,2025-04-09 22:40:54.368,STOP,35
188.0,11967.101629626946,1012.6234308032311,-57963.34838430266,-54564.944453828866,-33247.52697319114,-30477.989372967408,-7137.9848883134,-20379.60533852641,0.0,0.0,0.0,193.0,1.0,154.0,0.0,3.0,3.0,250.0,410.0,3.0,1018.0,1744252854.3684747,0.0,2025-04-09 22:40:54.368,STOP,35
189.0,11910.775233599572,1012.5563755698653,-57999.021768453335,-54595.02990186571,-33266.97299086726,-30513.23807397343,-7061.273701342786,-20412.417699386802,0.0,0.0,0.0,193.0,1.0,154.0,0.0,3.0,3.0,251.0,410.0,3.0,1019.0,1744252854.3684835,0.0,2025-04-09 22:40:54.368,STOP,35
190.0,11879.147515195313,972.6138082282315,-58019.652428585585,-54598.87440191203,-33318.27024439219,-30565.541155998846,-7085.1900679099645,-20455.444807463267,0.0,0.0,0.0,193.0,1.0,155.0,0.0,3.0,3.0,252.0,411.0,3.0,1020.0,1744252854.3684924,0.0,2025-04-09 22:40:54.368,STOP,35
191.0,11994.460164840242,999.078273663315,-58023.58633560972,-54591.20775356385,-33337.98448300177,-30581.47794979548,-7086.978207466389,-20468.85585413645,0.0,0.0,0.0,193.0,1.0,154.0,0.0,3.0,3.0,250.0,410.0,3.0,1018.0,1744252854.3685012,0.0,2025-04-09 22:40:54.368,STOP,35
192.0,11975.237664608678,1011.7293610250189,-57974.94893967497,-54591.028939608215,-33251.9973220822,-30501.101076734198,-7195.205354118986,-20398.89489399134,0.0,0.0,0.0,193.0,1.0,154.0,0.0,3.0,3.0,249.0,410.0,3.0,1017.0,1744252854.36851,0.0,2025-04-09 22:40:54.368,STOP,35
193.0,11918.039550547546,1009.1812621571139,-57991.37747184962,-54581.84237263708,-33259.306342519085,-30513.975681540454,-7045.985108135356,-20405.779231283574,0.0,0.0,0.0,193.0,1.0,155.0,0.0,3.0,3.0,252.0,411.0,3.0,1020.0,1744252854.3685188,0.0,2025-04-09 22:40:54.368,STOP,35
194.0,11874.319538392967,975.7430524519746,-58010.2423441699,-54604.99877989278,-33293.4598080468,-30548.75499591291,-7110.402835655551,-20446.839385847972,0.0,0.0,0.0,193.0,1.0,155.0,0.0,3.0,3.0,250.0,411.0,3.0,1018.0,1744252854.3685277,0.0,2025-04-09 22:40:54.368,STOP,35
195.0,11992.493211328176,1000.3970265861782,-57997.43479459701,-54550.393468188464,-33315.05159319063,-30567.32929555527,-7023.856881124602,-20452.829653361994,0.0,0.0,0.0,193.0,1.0,154.0,0.0,3.0,3.0,250.0,410.0,3.0,1018.0,1744252854.3685362,0.0,2025-04-09 22:40:54.368,STOP,35
196.0,11989.073394426512,1012.9587069700608,-57968.37752680511,-54587.56441921764,-33244.710653389775,-30487.846492272198,-7216.305400884796,-20396.95029222373,0.0,0.0,0.0,193.0,1.0,155.0,0.0,3.0,3.0,252.0,411.0,3.0,1020.0,1744252854.3685448,0.0,2025-04-09 22:40:54.368,STOP,35
197.0,11935.451559478232,1025.2521664204796,-57974.16662861904,-54553.03097403419,-33247.571676680054,-30501.436352901026,-7048.041468625244,-20414.049376732037,0.0,0.0,0.0,193.0,1.0,155.0,0.0,3.0,3.0,251.0,411.0,3.0,1019.0,1744252854.3685539,0.0,2025-04-09 22:40:54.368,STOP,35
198.0,11874.230131415145,986.6730554906196,-58009.236515669414,-54608.977390405824,-33283.69209571983,-30540.440146975536,-7137.202577257464,-20456.405932474845,0.0,0.0,0.0,193.0,1.0,154.0,0.0,3.0,3.0,250.0,410.0,3.0,1018.0,1744252854.3685627,0.0,2025-04-09 22:40:54.368,STOP,35
199.0,11952.617699219907,978.469965275522,-58013.773919793835,-54553.679174623394,-33336.46456437881,-30588.80932197682,-7025.846186381124,-20477.014240862638,0.0,0.0,0.0,193.0,1.0,154.0,0.0,3.0,3.0,249.0,410.0,3.0,1017.0,1744252854.3685713,0.0,2025-04-09 22:40:54.368,STOP,35
200.0,11977.94222568777,994.4961660499771,-58001.56986732124,-54618.23101261032,-33275.08667410453,-30519.98830079893,-7240.110008729698,-20409.400213885336,0.0,0.0,0.0,193.0,1.0,155.0,0.0,3.0,3.0,251.0,411.0,3.0,1019.0,1744252854.368585,0.0,2025-04-09 22:40:54.368,STOP,35
201.0,11941.330068269977,1015.1938814155915,-57983.71082350145,-54554.01445079022,-33255.30538026159,-30512.85809431769,-7059.2396925973535,-20398.17963816877,0.0,0.0,0.0,193.0,1.0,154.0,0.0,3.0,3.0,250.0,410.0,3.0,1018.0,1744252854.368594,0.0,2025-04-09 22:40:54.368,STOP,35
202.0,11887.775288555062,997.8712794627285,-58015.00326573888,-54609.133852617015,-33277.858290416996,-30535.299245750815,-7139.258937747352,-20434.65768511983,0.0,0.0,0.0,193.0,1.0,154.0,0.0,3.0,3.0,251.0,410.0,3.0,1019.0,1744252854.3686028,0.0,2025-04-09 22:40:54.368,STOP,35
203.0,11961.826617935494,1005.0014859439715,-57992.025672438824,-54519.503357351234,-33307.72022100928,-30574.168929358595,-7019.945325844923,-20464.67607792331,0.0,0.0,0.0,193.0,1.0,155.0,0.0,3.0,3.0,252.0,411.0,3.0,1020.0,1744252854.3686116,0.0,2025-04-09 22:40:54.368,STOP,35
204.0,12011.42513888182,1016.8032070163736,-57998.597085308684,-54586.960922117345,-33273.11972059247,-30521.91055082209,-7208.28112462534,-20407.18739118426,0.0,0.0,0.0,193.0,1.0,154.0,0.0,3.0,3.0,249.0,410.0,3.0,1017.0,1744252854.3686204,0.0,2025-04-09 22:40:54.368,STOP,35
205.0,11962.631280735885,1026.6156228322534,-57970.09861112817,-54521.20208992984,-33239.033310298124,-30496.049582487296,-7079.065689929211,-20373.63742275684,0.0,0.0,0.0,193.0,1.0,154.0,0.0,3.0,3.0,249.0,410.0,3.0,1017.0,1744252854.3686292,0.0,2025-04-09 22:40:54.368,STOP,35
206.0,11905.075538763469,1018.0772564503261,-58007.2919139018,-54577.81905863513,-33260.11100531948,-30515.361489696683,-7123.813882328735,-20398.291396891047,0.0,0.0,0.0,193.0,1.0,155.0,0.0,3.0,3.0,252.0,411.0,3.0,1020.0,1744252854.368638,0.0,2025-04-09 22:40:54.368,STOP,35
207.0,11941.531233970074,1007.6836952786083,-57994.417309095545,-54511.30026713613,-33299.00304067171,-30559.774405929376,-7040.955965632912,-20434.836499075474,0.0,0.0,0.0,193.0,1.0,155.0,0.0,3.0,3.0,252.0,411.0,3.0,1020.0,1744252854.3686469,0.0,2025-04-09 22:40:54.368,STOP,35
208.0,12011.42513888182,1020.0442099623931,-58012.879850015626,-54568.47602945281,-33293.996249913725,-30542.67532142107,-7177.212199832464,-20425.582876870976,0.0,0.0,0.0,193.0,1.0,154.0,0.0,3.0,3.0,249.0,410.0,3.0,1017.0,1744252854.3686557,0.0,2025-04-09 22:40:54.368,STOP,35
209.0,11974.36594657492,1034.72930606953,-57968.66809948303,-54511.03204620267,-33234.04887128459,-30487.354753894182,-7121.019914271822,-20370.17290236627,0.0,0.0,0.0,193.0,1.0,154.0,0.0,3.0,3.0,250.0,410.0,3.0,1018.0,1744252854.3686645,0.0,2025-04-09 22:40:54.368,STOP,35
210.0,11916.676094135773,1027.375582143734,-58010.75643429237,-54556.003756046746,-33258.747548907704,-30512.254597217394,-7105.641914086571,-20400.548923081034,0.0,0.0,0.0,193.0,1.0,154.0,0.0,3.0,3.0,250.0,410.0,3.0,1018.0,1744252854.368673,0.0,2025-04-09 22:40:54.368,STOP,35
211.0,11911.602248144418,995.3231805948235,-58018.66895182955,-54526.5218051102,-33303.47338956277,-30561.51784199689,-7085.547695821249,-20447.353475970445,0.0,0.0,0.0,193.0,1.0,154.0,0.0,3.0,3.0,250.0,410.0,3.0,1018.0,1744252854.368682,0.0,2025-04-09 22:40:54.368,STOP,35
212.0,12016.498984873175,1022.5029018524768,-58024.94979202149,-54542.54800588465,-33306.24500587523,-30561.070807107786,-7139.303641236263,-20457.300002253058,0.0,0.0,0.0,193.0,1.0,154.0,0.0,2.0,3.0,250.0,410.0,2.0,1018.0,1744252854.3686907,0.0,2025-04-09 22:40:54.368,STOP,35
213.0,11984.088955412979,1032.114151968259,-57978.77108797683,-54515.234174160265,-33235.36762420745,-30482.41501836956,-7183.582447002226,-20381.6616990163,0.0,0.0,0.0,193.0,1.0,155.0,0.0,2.0,3.0,252.0,411.0,2.0,1020.0,1744252854.3686993,0.0,2025-04-09 22:40:54.368,STOP,35
214.0,11931.048265820536,1039.5572828718762,-58008.454204613474,-54531.103912723534,-33251.61734242646,-30504.029155257842,-7086.844096999657,-20398.80548701352,0.0,0.0,0.0,193.0,1.0,155.0,0.0,2.0,3.0,252.0,411.0,2.0,1020.0,1744252854.368708,0.0,2025-04-09 22:40:54.368,STOP,35
215.0,11896.850096803915,1000.9781719420162,-58025.50858563287,-54533.94258426936,-33299.04774416063,-30547.36918775668,-7125.020876529322,-20442.57020265701,0.0,0.0,0.0,193.0,1.0,154.0,0.0,2.0,3.0,252.0,410.0,2.0,1020.0,1744252854.368722,0.0,2025-04-09 22:40:54.368,STOP,35
216.0,12007.67004581333,1025.2521664204796,-58031.54355663581,-54517.961086983814,-33329.93785499786,-30571.19614734604,-7112.973286267911,-20470.755752415153,0.0,0.0,0.0,193.0,1.0,154.0,0.0,2.0,3.0,250.0,410.0,2.0,1018.0,1744252854.3687305,0.0,2025-04-09 22:40:54.368,STOP,35
217.0,11990.772127005117,1037.7020880820858,-57994.52906781782,-54534.00963950272,-33257.00411284019,-30497.59185285471,-7255.19743623703,-20413.691748820755,0.0,0.0,0.0,193.0,1.0,155.0,0.0,2.0,3.0,251.0,411.0,2.0,1019.0,1744252854.3687391,0.0,2025-04-09 22:40:54.368,STOP,35
218.0,11942.22413804819,1046.6651376086638,-58006.62136156814,-54516.82114801659,-33260.15570880839,-30506.957233781486,-7092.476736602394,-20410.13782145236,0.0,0.0,0.0,193.0,1.0,155.0,0.0,2.0,3.0,252.0,411.0,2.0,1020.0,1744252854.368748,0.0,2025-04-09 22:40:54.368,STOP,35
219.0,11894.011425258092,1009.5165383239435,-58026.80498681128,-54546.280747208686,-33293.92919468036,-30534.069899805774,-7160.113115324154,-20431.170812984805,0.0,0.0,0.0,193.0,1.0,154.0,0.0,2.0,3.0,250.0,410.0,2.0,1018.0,1744252854.3687568,0.0,2025-04-09 22:40:54.368,STOP,35
220.0,11999.958693976247,1027.1297129547254,-58020.345332663695,-54496.77163324018,-33326.87566600748,-30566.792853688345,-7073.120125904099,-20453.299039995556,0.0,0.0,0.0,193.0,1.0,154.0,0.0,2.0,3.0,250.0,410.0,2.0,1018.0,1744252854.3687654,0.0,2025-04-09 22:40:54.368,STOP,35
221.0,11997.812926508537,1033.567015357854,-57998.731195775414,-54548.56062514313,-33262.56969720956,-30502.30807093478,-7280.074927815786,-20413.043548231548,0.0,0.0,0.0,193.0,1.0,155.0,0.0,2.0,3.0,251.0,411.0,2.0,1019.0,1744252854.368774,0.0,2025-04-09 22:40:54.368,STOP,35
222.0,11944.526367727085,1034.9751752585382,-58003.82739351123,-54514.38480787096,-33262.949676865304,-30514.109792007184,-7100.299847161752,-20408.975530740685,0.0,0.0,0.0,193.0,1.0,155.0,0.0,2.0,3.0,252.0,411.0,2.0,1020.0,1744252854.3687828,0.0,2025-04-09 22:40:54.368,STOP,35
223.0,11890.97158801217,1013.4280936036222,-58021.79819605329,-54559.51297992623,-33278.08180786155,-30527.56554216928,-7170.573731729238,-20419.391443656856,0.0,0.0,0.0,193.0,1.0,154.0,0.0,2.0,3.0,249.0,410.0,2.0,1017.0,1744252854.368791,0.0,2025-04-09 22:40:54.368,STOP,35
224.0,11973.158952374335,1017.0714279498372,-58011.42698662603,-54487.09332789104,-33319.857218248515,-30565.7646734434,-7045.158093590509,-20446.23588874768,0.0,0.0,0.0,193.0,1.0,154.0,0.0,2.0,3.0,250.0,410.0,2.0,1018.0,1744252854.3688,0.0,2025-04-09 22:40:54.368,STOP,35
225.0,11999.444603853775,1022.7264192970299,-58012.23164942642,-54561.36817471602,-33277.36655203898,-30506.04081225882,-7267.245026498441,-20402.56058008201,0.0,0.0,0.0,193.0,1.0,155.0,0.0,2.0,3.0,251.0,411.0,2.0,1019.0,1744252854.3688087,0.0,2025-04-09 22:40:54.368,STOP,35
226.0,11950.673097452296,1031.8906345237058,-57992.249189883376,-54503.72302576579,-33254.5007174612,-30499.26823368886,-7101.350379151151,-20391.98820495465,0.0,0.0,0.0,193.0,1.0,155.0,0.0,2.0,3.0,252.0,411.0,2.0,1020.0,1744252854.368817,0.0,2025-04-09 22:40:54.368,STOP,35
227.0,11885.718928065173,1012.6234308032311,-58024.905088532585,-54565.21267476233,-33278.05945611709,-30519.317748465273,-7172.60774047467,-20411.255408675126,0.0,0.0,0.0,193.0,1.0,154.0,0.0,2.0,3.0,250.0,410.0,2.0,1018.0,1744252854.368826,0.0,2025-04-09 22:40:54.368,STOP,35
228.0,11938.491396724154,1000.1288056527145,-58016.27731517283,-54498.112737907504,-33324.90871249542,-30566.792853688345,-7063.39711706604,-20441.22909798969,0.0,0.0,0.0,193.0,1.0,155.0,0.0,2.0,3.0,251.0,411.0,2.0,1019.0,1744252854.3688347,0.0,2025-04-09 22:40:54.368,STOP,35
229.0,12002.260923655143,1019.4407128620999,-58021.64173384211,-54571.158238787444,-33293.61627025798,-30531.678263149057,-7257.209093238008,-20426.923981538293,0.0,0.0,0.0,193.0,1.0,155.0,0.0,2.0,3.0,251.0,411.0,2.0,1019.0,1744252854.3688436,0.0,2025-04-09 22:40:54.368,STOP,35
230.0,11959.345574300954,1032.7176490685522,-57982.4367740675,-54505.868793233494,-33247.48226970223,-30494.730829564432,-7142.812865115746,-20388.501332819622,0.0,0.0,0.0,193.0,1.0,154.0,0.0,2.0,3.0,250.0,410.0,2.0,1018.0,1744252854.3688571,0.0,2025-04-09 22:40:54.368,STOP,35
231.0,11902.996826529125,1026.3474018987897,-58017.57371635124,-54562.23989274978,-33268.71642693477,-30515.71911760797,-7169.4784962509275,-20421.93954252476,0.0,0.0,0.0,193.0,1.0,154.0,0.0,2.0,3.0,251.0,410.0,2.0,1019.0,1744252854.368866,0.0,2025-04-09 22:40:54.368,STOP,35
232.0,11928.522518697086,1010.8799947357172,-58009.95177149198,-54508.6180578015,-33313.73284026776,-30560.400254774126,-7111.743940322869,-20457.56822318652,0.0,0.0,0.0,193.0,1.0,155.0,0.0,2.0,3.0,252.0,411.0,2.0,1020.0,1744252854.3688748,0.0,2025-04-09 22:40:54.368,STOP,35
233.0,12022.735121576205,1034.0587537358706,-58006.39784412359,-54544.872587308004,-33286.32960156556,-30527.967873569476,-7204.101348412198,-20419.816126801506,0.0,0.0,0.0,193.0,1.0,154.0,0.0,2.0,3.0,250.0,410.0,2.0,1018.0,1744252854.3688836,0.0,2025-04-09 22:40:54.368,STOP,35
234.0,11978.612778021428,1042.6418236067086,-57970.05390763926,-54505.57822055557,-33231.25490322768,-30480.895099746598,-7165.678699693525,-20376.967832680682,0.0,0.0,0.0,193.0,1.0,155.0,0.0,2.0,3.0,251.0,411.0,2.0,1019.0,1744252854.3688927,0.0,2025-04-09 22:40:54.368,STOP,35
235.0,11910.97639929967,1031.5553583568762,-58016.83610878421,-54557.814247347625,-33260.66979893086,-30515.786172841334,-7138.566033669238,-20414.56346685451,0.0,0.0,0.0,193.0,1.0,155.0,0.0,2.0,3.0,252.0,411.0,2.0,1020.0,1744252854.3689013,0.0,2025-04-09 22:40:54.368,STOP,35
236.0,11900.180506727756,997.9606864405497,-58017.685475073515,-54531.50624412373,-33297.52782553766,-30555.90755413861,-7126.049056774266,-20447.532289926086,0.0,0.0,0.0,193.0,1.0,155.0,0.0,2.0,3.0,250.0,411.0,2.0,1018.0,1744252854.36891,0.0,2025-04-09 22:40:54.368,STOP,35
237.0,12004.049063211569,1012.8692999922396,-58027.63200135613,-54545.56549138612,-33314.22457864578,-30565.38469378766,-7166.103382838176,-20458.596403431464,0.0,0.0,0.0,193.0,1.0,154.0,0.0,2.0,3.0,250.0,410.0,2.0,1018.0,1744252854.3689184,0.0,2025-04-09 22:40:54.368,STOP,35
238.0,11967.28044358259,1020.5583000848652,-57990.505753815865,-54537.9211947824,-33248.77867088064,-30500.385820911626,-7241.696982586024,-20401.711213792707,0.0,0.0,0.0,193.0,1.0,154.0,0.0,2.0,3.0,251.0,410.0,2.0,1019.0,1744252854.3689272,0.0,2025-04-09 22:40:54.368,STOP,35
239.0,11919.917097081792,1035.3104514253678,-58009.86236451416,-54540.29047969467,-33255.28302851713,-30512.254597217394,-7129.5582806537495,-20409.333158651967,0.0,0.0,0.0,193.0,1.0,155.0,0.0,2.0,3.0,252.0,411.0,2.0,1020.0,1744252854.368936,0.0,2025-04-09 22:40:54.368,STOP,35
240.0,11886.233018187646,995.6808085061084,-58023.496928631896,-54547.55479664264,-33295.06913364758,-30550.543135469336,-7164.9410921265,-20444.98419105818,0.0,0.0,0.0,193.0,1.0,155.0,0.0,2.0,3.0,250.0,411.0,2.0,1018.0,1744252854.368945,0.0,2025-04-09 22:40:54.368,STOP,35
241.0,12001.94799923277,1018.7925122728959,-58015.65146632808,-54514.76478752671,-33315.364517613,-30561.115510596697,-7117.913021792534,-20442.078464278995,0.0,0.0,0.0,193.0,1.0,154.0,0.0,2.0,3.0,249.0,410.0,2.0,1017.0,1744252854.3689535,0.0,2025-04-09 22:40:54.368,STOP,35
242.0,11987.08408916999,1034.72930606953,-57980.00043392187,-54536.33422092607,-33243.45895570028,-30487.533567849827,-7272.564741678803,-20388.568388052987,0.0,0.0,0.0,193.0,1.0,155.0,0.0,2.0,3.0,252.0,411.0,2.0,1020.0,1744252854.3689623,0.0,2025-04-09 22:40:54.368,STOP,35
243.0,11934.132806555368,1039.3784689162337,-57997.23362889691,-54523.95135449784,-33252.8466883715,-30516.412021686083,-7115.879013047102,-20411.03189123057,0.0,0.0,0.0,193.0,1.0,155.0,0.0,2.0,3.0,250.0,411.0,2.0,1018.0,1744252854.368971,0.0,2025-04-09 22:40:54.368,STOP,35
244.0,11877.359375638887,998.7429974964855,-58024.39099841011,-54566.73259338529,-33285.748456209716,-30555.52757448287,-7185.929380170033,-20451.15327252785,0.0,0.0,0.0,193.0,1.0,154.0,0.0,2.0,3.0,249.0,410.0,2.0,1017.0,1744252854.3689797,0.0,2025-04-09 22:40:54.368,STOP,35
245.0,11983.619568779419,1016.2891168939016,-58017.283143673325,-54510.003865957726,-33320.95245372682,-30584.651897508134,-7085.525344076794,-20467.224176791213,0.0,0.0,0.0,193.0,1.0,155.0,0.0,2.0,3.0,251.0,411.0,2.0,1019.0,1744252854.3689928,0.0,2025-04-09 22:40:54.368,STOP,35
246.0,11989.47572582671,1018.211366917058,-57995.71371027395,-54565.61500616253,-33255.43949072832,-30514.690937363022,-7296.68227394608,-20419.302036679037,0.0,0.0,0.0,193.0,1.0,155.0,0.0,2.0,3.0,252.0,411.0,2.0,1020.0,1744252854.4732168,0.0,2025-04-09 22:40:54.473,STOP,35
247.0,11932.612887932408,1013.048113947882,-57993.25501838387,-54523.481967864274,-33249.09159530301,-30522.737565366933,-7115.543736880271,-20414.00467324313,0.0,0.0,0.0,193.0,1.0,154.0,0.0,2.0,3.0,249.0,410.0,2.0,1017.0,1744252854.4732437,0.0,2025-04-09 22:40:54.473,STOP,35
248.0,11866.831704000439,985.1084333787481,-58024.32394317674,-54581.0824133256,-33276.11485434948,-30545.51399296689,-7193.1936971180085,-20428.33214143898,0.0,0.0,0.0,193.0,1.0,155.0,0.0,2.0,3.0,251.0,411.0,2.0,1019.0,1744252854.4732544,0.0,2025-04-09 22:40:54.473,STOP,35
249.0,11957.199806833245,996.4407678175888,-58003.33565513321,-54501.398444342434,-33310.558892555106,-30580.24860385044,-7076.428184083484,-20461.61388893293,0.0,0.0,0.0,193.0,1.0,155.0,0.0,2.0,3.0,252.0,411.0,2.0,1020.0,1744252854.4732647,0.0,2025-04-09 22:40:54.473,STOP,35
250.0,11980.691490255773,998.34066609629,-58008.63301856912,-54581.19417204788,-33279.28880206213,-30531.164173026584,-7304.058349616332,-20429.94146703976,0.0,0.0,0.0,193.0,1.0,154.0,0.0,2.0,3.0,250.0,410.0,2.0,1018.0,1744252854.4732745,0.0,2025-04-09 22:40:54.473,STOP,35
251.0,11922.934582583259,995.211421872547,-57990.68456777151,-54525.78419754317,-33257.29468551811,-30520.256521732394,-7144.019859316333,-20405.51101035011,0.0,0.0,0.0,193.0,1.0,154.0,0.0,2.0,3.0,249.0,410.0,2.0,1017.0,1744252854.4732835,0.0,2025-04-09 22:40:54.473,STOP,35
252.0,11854.225320127645,967.1152790922259,-58028.68253334553,-54593.06294835365,-33276.98657238323,-30544.53051621086,-7196.971141930955,-20437.98809504367,0.0,0.0,0.0,193.0,1.0,155.0,0.0,2.0,3.0,251.0,411.0,2.0,1019.0,1744252854.4732928,0.0,2025-04-09 22:40:54.473,STOP,35
253.0,11900.87341080587,952.7431074074635,-58014.71269306096,-54521.15738644092,-33319.27607289267,-30584.16015913012,-7099.316370405719,-20461.52448195511,0.0,0.0,0.0,193.0,1.0,155.0,0.0,2.0,3.0,252.0,411.0,2.0,1020.0,1744252854.4733021,0.0,2025-04-09 22:40:54.473,STOP,35
254.0,11968.107458127435,966.1318023361924,-58019.11598671866,-54586.066852339136,-33295.33735458105,-30543.52468771037,-7274.419936468594,-20441.005580545137,0.0,0.0,0.0,193.0,1.0,155.0,0.0,2.0,3.0,251.0,411.0,2.0,1019.0,1744252854.4733112,0.0,2025-04-09 22:40:54.473,STOP,35
255.0,11913.233925489656,968.4563837595445,-57985.00722467986,-54529.69575282285,-33251.9973220822,-30505.929053536544,-7173.032423619321,-20400.683033547764,0.0,0.0,0.0,193.0,1.0,155.0,0.0,2.0,3.0,252.0,411.0,2.0,1020.0,1744252854.4733205,0.0,2025-04-09 22:40:54.473,STOP,35
0.0,11845.597546767896,950.4185259841116,-58024.413350154566,-54586.46918373933,-33270.638676957926,-30530.27010324837,-7165.902217138078,-20423.213591958713,0.0,0.0,0.0,193.0,1.0,155.0,0.0,2.0,3.0,249.0,411.0,2.0,1017.0,1744252854.4733293,0.0,2025-04-09 22:40:54.473,STOP,35
1.0,11855.409962583777,918.2096622240141,-58020.05475998578,-54536.31186918162,-33312.995232700734,-30569.05037987833,-7113.643838601571,-20455.355400485445,0.0,0.0,0.0,193.0,1.0,155.0,0.0,2.0,3.0,249.0,411.0,2.0,1017.0,1744252854.473338,0.0,2025-04-09 22:40:54.473,STOP,35
2.0,11944.168739815801,931.0395635413604,-58030.20245196849,-54575.96386384533,-33310.7153547663,-30553.13593782615,-7215.590145062226,-20442.033760790084,0.0,0.0,0.0,193.0,1.0,155.0,0.0,2.0,3.0,251.0,411.0,2.0,1019.0,1744252854.4733474,0.0,2025-04-09 22:40:54.473,STOP,35
3.0,11894.950198525215,930.9725083079944,-57993.366777106145,-54546.906596053435,-33251.39382498191,-30508.879483804645,-7202.894354211611,-20405.354548138923,0.0,0.0,0.0,193.0,1.0,155.0,0.0,2.0,3.0,252.0,411.0,2.0,1020.0,1744252854.4733565,0.0,2025-04-09 22:40:54.473,STOP,35
4.0,11830.085436115914,927.2174152395029,-58022.2452309424,-54575.159201044946,-33262.323828020555,-30521.66468163308,-7140.801208114768,-20411.411870886313,0.0,0.0,0.0,193.0,1.0,154.0,0.0,2.0,3.0,250.0,410.0,2.0,1018.0,1744252854.4734063,0.0,2025-04-09 22:40:54.473,STOP,35
5.0,11809.499479472575,890.6052578217099,-58022.46874838696,-54552.38277344499,-33301.59584302853,-30556.82397566128,-7142.879920349112,-20448.314600982023,0.0,0.0,0.0,193.0,1.0,154.0,0.0,2.0,3.0,249.0,410.0,2.0,1017.0,1744252854.4734151,0.0,2025-04-09 22:40:54.473,STOP,35
6.0,11910.082329521458,900.79765329333,-58026.4473589,-54552.82980833409,-33321.31008163811,-30558.343894284237,-7165.902217138078,-20450.817996361016,0.0,0.0,0.0,193.0,1.0,155.0,0.0,2.0,3.0,252.0,411.0,2.0,1020.0,1744252854.473424,0.0,2025-04-09 22:40:54.473,STOP,35
7.0,11862.942500465215,884.927914730062,-57998.06064344176,-54562.016375305226,-33258.412272740876,-30506.04081225882,-7258.952529305521,-20414.585818598964,0.0,0.0,0.0,193.0,1.0,155.0,0.0,2.0,3.0,249.0,411.0,2.0,1017.0,1744252854.4734468,0.0,2025-04-09 22:40:54.473,STOP,35
8.0,11797.697758400174,876.702472770509,-58030.425969413045,-54574.91333185594,-33277.2547933167,-30529.84542010372,-7142.142312782087,-20435.28353396458,0.0,0.0,0.0,193.0,1.0,155.0,0.0,2.0,3.0,249.0,411.0,2.0,1017.0,1744252854.4734554,0.0,2025-04-09 22:40:54.473,STOP,35
9.0,11756.65995558023,838.8386176632188,-58037.86910031666,-54581.03770983669,-33308.815456487595,-30547.033911589853,-7190.019749405355,-20445.788853858576,0.0,0.0,0.0,193.0,1.0,155.0,0.0,2.0,3.0,250.0,411.0,2.0,1018.0,1744252854.4734645,0.0,2025-04-09 22:40:54.473,STOP,35
10.0,11858.382744596332,846.9970043894058,-58039.00903928388,-54551.75692460024,-33334.63172133347,-30579.890975939154,-7122.897460806068,-20475.24845305067,0.0,0.0,0.0,193.0,1.0,155.0,0.0,2.0,3.0,252.0,411.0,2.0,1020.0,1744252854.4734733,0.0,2025-04-09 22:40:54.473,STOP,35
11.0,11837.237994341613,845.186513088526,-58013.706864560474,-54587.452660495364,-33264.60370595499,-30506.309033192283,-7293.240105299963,-20413.08825172046,0.0,0.0,0.0,193.0,1.0,155.0,0.0,2.0,3.0,250.0,411.0,2.0,1018.0,1744252854.473482,0.0,2025-04-09 22:40:54.473,STOP,35
12.0,11789.3829094628,854.4401352930231,-58023.16165246507,-54561.39052646048,-33268.69407519032,-30520.725908365956,-7119.477643904405,-20414.652873832332,0.0,0.0,0.0,193.0,1.0,155.0,0.0,2.0,3.0,249.0,411.0,2.0,1017.0,1744252854.473492,0.0,2025-04-09 22:40:54.473,STOP,35
13.0,11731.22367039009,820.3090215097692,-58055.32581273626,-54612.844242196596,-33308.658994276404,-30559.595591973735,-7210.605706048693,-20457.925851097807,0.0,0.0,0.0,193.0,1.0,155.0,0.0,2.0,3.0,251.0,411.0,2.0,1019.0,1744252854.473501,0.0,2025-04-09 22:40:54.473,STOP,35
14.0,11835.449854785187,839.5762252302438,-58035.38805668212,-54541.40806691743,-33333.134154454965,-30586.551795786836,-7098.019969227311,-20479.651746708365,0.0,0.0,0.0,193.0,1.0,155.0,0.0,2.0,3.0,252.0,411.0,2.0,1020.0,1744252854.4735096,0.0,2025-04-09 22:40:54.473,STOP,35
15.0,11856.125218406347,855.1553911155929,-58011.98578023742,-54593.62174196503,-33266.235383300234,-30508.07482100425,-7304.974771138999,-20422.81126055852,0.0,0.0,0.0,193.0,1.0,155.0,0.0,2.0,3.0,250.0,411.0,2.0,1018.0,1744252854.9422295,0.0,2025-04-09 22:40:54.942,STOP,35
16.0,11818.641342954797,874.5120018138888,-57993.94792246198,-54532.24385169076,-33247.571676680054,-30498.061239488274,-7113.800300812758,-20400.705385292218,0.0,0.0,0.0,193.0,1.0,154.0,0.0,2.0,3.0,250.0,410.0,2.0,1018.0,1744252854.9422796,0.0,2025-04-09 22:40:54.942,STOP,35
17.0,11751.966089244615,843.9795188879394,-58032.07999850273,-54595.499288499275,-33279.311153806586,-30524.346890967718,-7187.605761004182,-20417.916228522805,0.0,0.0,0.0,193.0,1.0,155.0,0.0,2.0,3.0,251.0,411.0,2.0,1019.0,1744252854.9423084,0.0,2025-04-09 22:40:54.942,STOP,35
18.0,11832.588831494908,851.4450015360119,-58021.395864653095,-54522.297325408144,-33323.25468340572,-30569.497414767437,-7074.818858482702,-20458.842272620474,0.0,0.0,0.0,193.0,1.0,155.0,0.0,2.0,3.0,252.0,411.0,2.0,1020.0,1744252854.9423344,0.0,2025-04-09 22:40:54.942,STOP,35
19.0,11879.035756473037,868.4323273220454,-58022.46874838696,-54597.6897594559,-33285.70375272081,-30518.714251364978,-7292.994236110954,-20427.348664682944,0.0,0.0,0.0,193.0,1.0,154.0,0.0,2.0,3.0,250.0,410.0,2.0,1018.0,1744252854.942397,0.0,2025-04-09 22:40:54.942,STOP,35
20.0,11830.91245066076,880.122289672171,-57998.57473356423,-54539.86579655002,-33256.33356050653,-30503.93974828002,-7139.1918825139865,-20398.5149143356,0.0,0.0,0.0,193.0,1.0,155.0,0.0,2.0,3.0,250.0,411.0,2.0,1018.0,1744252854.942413,0.0,2025-04-09 22:40:54.942,STOP,35
21.0,11764.304252183945,858.7540219728974,-58049.62611790015,-54616.80050096518,-33290.44232254533,-30545.871620878177,-7199.2957233543075,-20444.492452680166,0.0,0.0,0.0,193.0,1.0,155.0,0.0,2.0,3.0,252.0,411.0,2.0,1020.0,1744252854.9424293,0.0,2025-04-09 22:40:54.942,STOP,35
22.0,11821.368255778343,862.956149930495,-58029.28603044582,-54538.94937502735,-33323.41114561691,-30570.212670590005,-7105.217230941919,-20450.99681031666,0.0,0.0,0.0,193.0,1.0,155.0,0.0,2.0,3.0,250.0,411.0,2.0,1018.0,1744252854.9424455,0.0,2025-04-09 22:40:54.942,STOP,35
23.0,11898.884105549349,885.2855426413469,-58036.39388518261,-54595.834564666104,-33301.10410465051,-30538.674359163568,-7259.19839849453,-20439.84328983346,0.0,0.0,0.0,193.0,1.0,155.0,0.0,2.0,3.0,251.0,411.0,2.0,1019.0,1744252854.9424615,0.0,2025-04-09 22:40:54.942,STOP,35
24.0,11855.924052706248,900.9094120156064,-57996.07133818523,-54537.16123547092,-33250.94679009281,-30493.054448730287,-7176.005205631877,-20397.03969920155,0.0,0.0,0.0,193.0,1.0,155.0,0.0,2.0,3.0,251.0,411.0,2.0,1019.0,1744252854.9424765,0.0,2025-04-09 22:40:54.942,STOP,35
25.0,11790.299330985466,888.6159525651876,-58045.78161785384,-54599.209678078856,-33285.70375272081,-30527.40907995809,-7179.201505088986,-20431.43903391827,0.0,0.0,0.0,193.0,1.0,155.0,0.0,2.0,3.0,252.0,411.0,2.0,1020.0,1744252854.942492,0.0,2025-04-09 22:40:54.942,STOP,35
26.0,11810.639418439796,873.8861529691402,-58030.35891417968,-54547.957128042835,-33317.42087810289,-30560.132033840662,-7133.64864988907,-20450.99681031666,0.0,0.0,0.0,193.0,1.0,155.0,0.0,2.0,3.0,251.0,411.0,2.0,1019.0,1744252854.9425073,0.0,2025-04-09 22:40:54.942,STOP,35
27.0,11913.278628978567,902.6081445942098,-58037.422065427556,-54575.89680861197,-33320.39366011544,-30549.917286624586,-7207.18588914703,-20444.112473024426,0.0,0.0,0.0,193.0,1.0,155.0,0.0,2.0,3.0,252.0,411.0,2.0,1020.0,1744252854.942538,0.0,2025-04-09 22:40:54.942,STOP,35
28.0,11880.712137307184,917.4944064014443,-57996.27250388533,-54546.839540820074,-33258.85930762998,-30490.483998117925,-7225.6484300671145,-20397.196161412736,0.0,0.0,0.0,193.0,1.0,155.0,0.0,2.0,3.0,252.0,411.0,2.0,1020.0,1744252854.9425535,0.0,2025-04-09 22:40:54.942,STOP,35
29.0,11834.108750117868,928.4020576956342,-58025.37447516614,-54572.141715543476,-33271.39863626941,-30508.365393682172,-7153.385240243107,-20410.808373786018,0.0,0.0,0.0,193.0,1.0,155.0,0.0,2.0,3.0,250.0,411.0,2.0,1018.0,1744252854.9425688,0.0,2025-04-09 22:40:54.942,STOP,35
30.0,11816.942610376193,898.3389614032461,-58030.694190346505,-54559.84825609306,-33309.75422975472,-30550.163155813596,-7161.118943824643,-20449.588650415975,0.0,0.0,0.0,193.0,1.0,155.0,0.0,2.0,3.0,251.0,411.0,2.0,1019.0,1744252854.9425843,0.0,2025-04-09 22:40:54.942,STOP,35
31.0,11929.327181497478,925.0939995162487,-58037.84674857221,-54557.63543339198,-33334.36350040001,-30570.279725823373,-7163.689394437003,-20477.215406562736,0.0,0.0,0.0,193.0,1.0,155.0,0.0,2.0,3.0,251.0,411.0,2.0,1019.0,1744252854.9425995,0.0,2025-04-09 22:40:54.942,STOP,35
32.0,11907.310713208999,935.7557816214302,-58001.16753592104,-54561.32347122711,-33264.067264088066,-30490.506349862382,-7267.982634065465,-20391.787039254552,0.0,0.0,0.0,193.0,1.0,155.0,0.0,2.0,3.0,252.0,411.0,2.0,1020.0,1744252854.9426155,0.0,2025-04-09 22:40:54.942,STOP,35
33.0,11868.686898790229,954.1512673081479,-58011.58344883722,-54549.25352922124,-33264.626057699454,-30498.754143566388,-7120.483472404894,-20390.46828633169,0.0,0.0,0.0,193.0,1.0,155.0,0.0,2.0,3.0,249.0,411.0,2.0,1017.0,1744252854.9426305,0.0,2025-04-09 22:40:54.942,STOP,35
34.0,11825.391569780299,922.1435692481482,-58027.45318740049,-54568.52073294172,-33298.600709271515,-30536.439184718038,-7172.920664897045,-20432.4225106743,0.0,0.0,0.0,193.0,1.0,155.0,0.0,2.0,3.0,250.0,411.0,2.0,1018.0,1744252854.9426463,0.0,2025-04-09 22:40:54.942,STOP,35
35.0,11938.960783357714,951.5137614624217,-58018.62424834064,-54522.81141553062,-33322.00298571622,-30562.255449563916,-7094.421338370006,-20457.34470574197,0.0,0.0,0.0,193.0,1.0,155.0,0.0,2.0,3.0,251.0,411.0,2.0,1019.0,1744252854.94267,0.0,2025-04-09 22:40:54.942,STOP,35
36.0,11941.821806647993,966.243561058469,-57987.2871026143,-54558.70831712584,-33250.56681043706,-30483.89023350361,-7280.343148749251,-20393.865751488895,0.0,0.0,0.0,193.0,1.0,155.0,0.0,2.0,3.0,251.0,411.0,2.0,1019.0,1744252854.9426856,0.0,2025-04-09 22:40:54.942,STOP,35
37.0,11908.137727753847,986.1589653681476,-57986.05775666926,-54519.12337769549,-33248.08576680253,-30486.70655330498,-7107.519460620816,-20385.707364762708,0.0,0.0,0.0,193.0,1.0,155.0,0.0,2.0,3.0,252.0,411.0,2.0,1020.0,1744252854.9427009,0.0,2025-04-09 22:40:54.942,STOP,35
38.0,11851.565462537465,960.4097557556339,-58017.1937366955,-54570.1300585425,-33286.53076726565,-30519.317748465273,-7197.149955886598,-20424.86762104841,0.0,0.0,0.0,193.0,1.0,154.0,0.0,2.0,3.0,251.0,410.0,2.0,1019.0,1744252854.942716,0.0,2025-04-09 22:40:54.942,STOP,35
39.0,11949.376696273888,976.8382879302845,-58005.83905051221,-54503.1642321544,-33323.366442128,-30556.779272172367,-7083.759556264825,-20453.947240584763,0.0,0.0,0.0,193.0,1.0,154.0,0.0,2.0,3.0,250.0,410.0,2.0,1018.0,1744252854.9427311,0.0,2025-04-09 22:40:54.942,STOP,35
40.0,11974.254187852644,988.2153258580358,-57993.52323931733,-54568.54308468617,-33262.25677278719,-30495.13316096463,-7294.6259134561915,-20415.971626755196,0.0,0.0,0.0,193.0,1.0,155.0,0.0,2.0,3.0,252.0,411.0,2.0,1020.0,1744252854.942746,0.0,2025-04-09 22:40:54.942,STOP,35
41.0,11930.198899531235,999.4806050635107,-57976.69237574248,-54511.03204620267,-33243.727176633736,-30484.069047459252,-7120.662286360537,-20392.8152194995,0.0,0.0,0.0,193.0,1.0,155.0,0.0,2.0,3.0,251.0,411.0,2.0,1019.0,1744252854.9427612,0.0,2025-04-09 22:40:54.942,STOP,35
42.0,11868.686898790229,976.9276949081058,-58008.27539065784,-54574.175724288914,-33265.40836875539,-30502.486884890426,-7190.913819183567,-20410.338987152456,0.0,0.0,0.0,193.0,1.0,155.0,0.0,2.0,3.0,249.0,411.0,2.0,1017.0,1744252854.9427764,0.0,2025-04-09 22:40:54.942,STOP,35
43.0,11936.926774612282,976.7041774635527,-57993.14325966159,-54499.565601297094,-33305.32858435257,-30544.798737144323,-7065.989919422856,-20437.22813573219,0.0,0.0,0.0,193.0,1.0,154.0,0.0,2.0,3.0,250.0,410.0,2.0,1018.0,1744252854.9427917,0.0,2025-04-09 22:40:54.942,STOP,35
44.0,11985.65357752485,996.7983957288737,-57996.69718702998,-54573.03578532169,-33271.93507813634,-30504.342079680217,-7279.426727226583,-20418.005635500627,0.0,0.0,0.0,193.0,1.0,154.0,0.0,2.0,3.0,251.0,410.0,2.0,1019.0,1744252854.9428065,0.0,2025-04-09 22:40:54.942,STOP,35
45.0,11945.711010183217,1012.5116720809547,-57964.287157569786,-54509.98151421327,-33235.23351374072,-30477.564689822757,-7145.606833172659,-20387.070821174482,0.0,0.0,0.0,193.0,1.0,155.0,0.0,2.0,3.0,252.0,411.0,2.0,1020.0,1744252854.9428217,0.0,2025-04-09 22:40:54.942,STOP,35
46.0,11886.389480398831,995.3902358281895,-58003.156841177566,-54575.628587678504,-33261.36270300898,-30499.670565089058,-7192.389034317617,-20411.88125751987,0.0,0.0,0.0,193.0,1.0,154.0,0.0,2.0,3.0,249.0,410.0,2.0,1017.0,1744252854.9428372,0.0,2025-04-09 22:40:54.942,STOP,35
47.0,11919.671227892784,977.8664681752286,-57992.91974221704,-54513.2672206482,-33303.09340990704,-30544.08348132175,-7104.054940230244,-20447.085255036982,0.0,0.0,0.0,193.0,1.0,155.0,0.0,2.0,3.0,250.0,411.0,2.0,1018.0,1744252854.9428525,0.0,2025-04-09 22:40:54.942,STOP,35
48.0,11998.818755009026,1001.3805033422117,-58005.97316097894,-54576.00856733425,-33287.693057977325,-30526.157382268597,-7238.47833138446,-20439.642124133366,0.0,0.0,0.0,193.0,1.0,155.0,0.0,2.0,3.0,252.0,411.0,2.0,1020.0,1744252854.9428675,0.0,2025-04-09 22:40:54.942,STOP,35
49.0,11960.150237101345,1014.7468465264853,-57963.99658489187,-54524.77836904268,-33236.44050794131,-30478.83873925671,-7184.007130146877,-20392.32348112148,0.0,0.0,0.0,193.0,1.0,155.0,0.0,2.0,3.0,252.0,411.0,2.0,1020.0,1744252854.9428825,0.0,2025-04-09 22:40:54.942,STOP,35
50.0,11895.263122947588,1005.0238376884267,-58006.174326679036,-54577.528485957206,-33260.82626114205,-30510.75703033889,-7166.013975860355,-20428.622714116897,0.0,0.0,0.0,193.0,1.0,155.0,0.0,2.0,3.0,250.0,411.0,2.0,1018.0,1744252854.9429004,0.0,2025-04-09 22:40:54.942,STOP,35
51.0,11894.30199793601,971.6526832166534,-58007.64954181309,-54546.79483733116,-33304.72508725227,-30563.663609464602,-7143.662231405048,-20484.18915083279,0.0,0.0,0.0,193.0,1.0,155.0,0.0,2.0,3.0,250.0,411.0,2.0,1018.0,1744252854.942909,0.0,2025-04-09 22:40:54.942,STOP,35
52.0,11994.638978795885,996.2843056064017,-58014.422120383046,-54563.670404394914,-33311.78823850015,-30544.888144122142,-7209.532822314838,-20460.093970309972,0.0,0.0,0.0,193.0,1.0,155.0,0.0,2.0,3.0,251.0,411.0,2.0,1019.0,1744252854.9429176,0.0,2025-04-09 22:40:54.942,STOP,35
53.0,11969.090934883468,1014.5233290819323,-57964.01893663633,-54529.919270267404,-33239.92738007634,-30463.952477449475,-7245.250909954419,-20384.276853117568,0.0,0.0,0.0,193.0,1.0,155.0,0.0,2.0,3.0,251.0,411.0,2.0,1019.0,1744252854.9429264,0.0,2025-04-09 22:40:54.942,STOP,35
54.0,11914.150347012324,1016.0208959604379,-57993.85851548416,-54551.533407155686,-33254.2995517611,-30488.897024261598,-7137.224929001919,-20406.09215570595,0.0,0.0,0.0,193.0,1.0,155.0,0.0,2.0,3.0,250.0,411.0,2.0,1018.0,1744252854.9429352,0.0,2025-04-09 22:40:54.942,STOP,35
55.0,11876.845285516416,970.6021512272539,-58013.05866397127,-54561.032898549194,-33303.1604651404,-30538.652007419114,-7163.309414781263,-20452.04734230606,0.0,0.0,0.0,193.0,1.0,155.0,0.0,2.0,3.0,248.0,411.0,2.0,1016.0,1744252854.942944,0.0,2025-04-09 22:40:54.942,STOP,35
56.0,11997.879981741904,1005.4261690886223,-58007.02369296834,-54539.441113405366,-33320.08073569307,-30546.251600533917,-7142.544644182282,-20464.206691289746,0.0,0.0,0.0,193.0,1.0,155.0,0.0,2.0,3.0,250.0,411.0,2.0,1018.0,1744252854.9429526,0.0,2025-04-09 22:40:54.942,STOP,35
57.0,11984.200714135255,1020.5359483404098,-57963.37073604712,-54543.978517529795,-33243.302493489085,-30460.59971578118,-7265.747459619935,-20384.098039161927,0.0,0.0,0.0,193.0,1.0,155.0,0.0,2.0,3.0,252.0,411.0,2.0,1020.0,1744252854.9429612,0.0,2025-04-09 22:40:54.942,STOP,35
58.0,11934.222213533189,1028.2696519219462,-57979.21812286593,-54537.49651163775,-33246.72231039075,-30486.37127713815,-7109.620524599615,-20401.487696348155,0.0,0.0,0.0,193.0,1.0,154.0,0.0,2.0,3.0,249.0,410.0,2.0,1017.0,1744252854.94297,0.0,2025-04-09 22:40:54.942,STOP,35
59.0,11877.560541338986,985.8460409457733,-58008.63301856912,-54575.11449755603,-33286.01667714318,-30535.142783539628,-7175.602874231681,-20453.835481862483,0.0,0.0,0.0,193.0,1.0,154.0,0.0,2.0,3.0,250.0,410.0,2.0,1018.0,1744252854.9429784,0.0,2025-04-09 22:40:54.942,STOP,35
60.0,11987.776993248104,1008.8683377347396,-57999.62526555363,-54522.05145621914,-33318.940796725845,-30561.651952463624,-7096.477698859894,-20474.913176883838,0.0,0.0,0.0,193.0,1.0,155.0,0.0,2.0,3.0,250.0,411.0,2.0,1018.0,1744252854.9429872,0.0,2025-04-09 22:40:54.942,STOP,35
61.0,12003.42321436682,1032.1588554571695,-57959.749753445365,-54553.09802926756,-33239.033310298124,-30473.586079309713,-7283.047709828343,-20398.537266080057,0.0,0.0,0.0,193.0,1.0,155.0,0.0,2.0,3.0,252.0,411.0,2.0,1020.0,1744252854.942996,0.0,2025-04-09 22:40:54.942,STOP,35
62.0,11950.091952096458,1033.8799397802281,-57968.77985820531,-54521.20208992984,-33243.77188012265,-30491.08749521822,-7096.321236648708,-20397.240864901647,0.0,0.0,0.0,193.0,1.0,156.0,0.0,2.0,3.0,252.0,412.0,2.0,1020.0,1744252854.943005,0.0,2025-04-09 22:40:54.943,STOP,35
63.0,11887.797640299517,1001.5369655533989,-58000.94401847649,-54577.55083770166,-33277.210089827786,-30524.257483989895,-7188.030444148832,-20432.24369671866,0.0,0.0,0.0,193.0,1.0,154.0,0.0,2.0,3.0,249.0,410.0,2.0,1017.0,1744252854.943014,0.0,2025-04-09 22:40:54.943,STOP,35
64.0,11981.94318794527,1018.211366917058,-57979.0840123992,-54497.15161289593,-33301.68525000635,-30550.56548721379,-7055.059916384211,-20449.879223093896,0.0,0.0,0.0,193.0,1.0,155.0,0.0,2.0,3.0,251.0,411.0,2.0,1019.0,1744252854.9430225,0.0,2025-04-09 22:40:54.943,STOP,35
65.0,12007.200659179767,1026.369753643245,-57972.75846871835,-54566.978462574305,-33249.91860984786,-30489.589928339712,-7262.014718295899,-20412.417699386802,0.0,0.0,0.0,193.0,1.0,155.0,0.0,2.0,3.0,252.0,411.0,2.0,1020.0,1744252854.9430366,0.0,2025-04-09 22:40:54.943,STOP,35
66.0,11953.802341676039,1028.0908379663038,-57964.980061647904,-54518.3187148951,-33243.347196978,-30492.160378952074,-7101.462137873428,-20410.562504597012,0.0,0.0,0.0,193.0,1.0,155.0,0.0,2.0,3.0,252.0,411.0,2.0,1020.0,1744252854.9430454,0.0,2025-04-09 22:40:54.943,STOP,35
67.0,11885.987148998636,1003.146291154181,-58002.53099233282,-54582.82584939311,-33268.761130423685,-30509.103001249197,-7172.853609663679,-20425.337007681966,0.0,0.0,0.0,193.0,1.0,154.0,0.0,2.0,3.0,250.0,410.0,2.0,1018.0,1744252854.9430542,0.0,2025-04-09 22:40:54.943,STOP,35
68.0,11949.421399762798,1001.0452271753821,-57985.3872043356,-54505.801738000126,-33305.41799133039,-30552.152461070116,-7050.209587837409,-20448.649877148855,0.0,0.0,0.0,193.0,1.0,155.0,0.0,2.0,3.0,249.0,411.0,2.0,1017.0,1744252854.9430628,0.0,2025-04-09 22:40:54.943,STOP,35
69.0,12008.050025469069,1016.9596692275608,-57990.30458811577,-54575.13684930049,-33278.260621817186,-30512.969853039966,-7247.642546611136,-20430.47790890669,0.0,0.0,0.0,193.0,1.0,155.0,0.0,2.0,3.0,251.0,411.0,2.0,1019.0,1744252854.9430716,0.0,2025-04-09 22:40:54.943,STOP,35
70.0,11964.352365058943,1030.3260124118344,-57956.531102243796,-54514.69773229334,-33238.51922017565,-30490.75221905139,-7138.722495880425,-20417.960932011716,0.0,0.0,0.0,193.0,1.0,156.0,0.0,2.0,3.0,251.0,412.0,2.0,1019.0,1744252854.9430804,0.0,2025-04-09 22:40:54.943,STOP,35
71.0,11896.805393315006,1012.5116720809547,-57999.13352717561,-54581.61885519253,-33261.31799952006,-30518.691899620524,-7164.449353748483,-20443.15134801285,0.0,0.0,0.0,193.0,1.0,155.0,0.0,2.0,3.0,252.0,411.0,2.0,1020.0,1744252854.9430892,0.0,2025-04-09 22:40:54.943,STOP,35
72.0,11926.17558552928,997.9606864405497,-57984.493134557386,-54515.27887764918,-33294.197415613824,-30544.262295277393,-7068.895646202046,-20434.009484530627,0.0,0.0,0.0,193.0,1.0,155.0,0.0,2.0,3.0,249.0,411.0,2.0,1017.0,1744252854.9430983,0.0,2025-04-09 22:40:54.943,STOP,35
73.0,12004.831374267504,1013.562204070354,-57999.40174810908,-54565.83852360708,-33293.370401068976,-30525.531533423848,-7193.014883162366,-20421.38074891338,0.0,0.0,0.0,193.0,1.0,155.0,0.0,2.0,3.0,251.0,411.0,2.0,1019.0,1744252854.9431071,0.0,2025-04-09 22:40:54.943,STOP,35
74.0,11958.607966733929,1022.2123291745579,-57962.52136975782,-54526.67826732138,-33241.11202253247,-30481.722114291446,-7163.42117350354,-20391.049431687527,0.0,0.0,0.0,193.0,1.0,155.0,0.0,2.0,3.0,252.0,411.0,2.0,1020.0,1744252854.943116,0.0,2025-04-09 22:40:54.943,STOP,35
75.0,11902.12510849537,1014.8139017598512,-57999.98289346491,-54571.64997716546,-33262.63675244293,-30509.237111715927,-7128.463045175439,-20427.549830383043,0.0,0.0,0.0,193.0,1.0,155.0,0.0,2.0,3.0,252.0,411.0,2.0,1020.0,1744252854.943125,0.0,2025-04-09 22:40:54.943,STOP,35
76.0,11892.02212000157,979.5875524982873,-58006.934285990515,-54547.86772106501,-33310.02245068818,-30557.18160357256,-7117.756559581347,-20474.62260420592,0.0,0.0,0.0,193.0,1.0,155.0,0.0,2.0,3.0,250.0,411.0,2.0,1018.0,1744252854.9431336,0.0,2025-04-09 22:40:54.943,STOP,35
77.0,12004.496098100675,1013.3163348813457,-58002.48628884391,-54551.309889711134,-33311.050630933125,-30545.491641222437,-7149.250167518875,-20459.55752844304,0.0,0.0,0.0,193.0,1.0,155.0,0.0,2.0,3.0,251.0,411.0,2.0,1019.0,1744252854.9431424,0.0,2025-04-09 22:40:54.943,STOP,35
78.0,11971.639033751373,1016.1997099160803,-57965.114172114634,-54544.13497974098,-33245.85059235699,-30484.47137885945,-7197.32876984224,-20398.89489399134,0.0,0.0,0.0,193.0,1.0,155.0,0.0,2.0,3.0,251.0,411.0,2.0,1019.0,1744252854.9431512,0.0,2025-04-09 22:40:54.943,STOP,35
79.0,11921.079387793468,1022.6146605747534,-57993.366777106145,-54562.84338985007,-33262.457938487285,-30510.108829749686,-7091.82853601319,-20424.130013481383,0.0,0.0,0.0,193.0,1.0,155.0,0.0,2.0,3.0,250.0,411.0,2.0,1018.0,1744252854.94316,0.0,2025-04-09 22:40:54.943,STOP,35
80.0,11890.59160835643,988.5282502804101,-57999.62526555363,-54563.826866606105,-33294.04095340263,-30543.56939119928,-7124.082103262199,-20458.059961564537,0.0,0.0,0.0,193.0,1.0,155.0,0.0,2.0,3.0,250.0,411.0,2.0,1018.0,1744252854.9432516,0.0,2025-04-09 22:40:54.943,STOP,35
81.0,12007.513583602142,1018.9266227396278,-57993.76910850634,-54532.89205227996,-33309.575415799074,-30552.197164559027,-7074.371823593596,-20464.452560478756,0.0,0.0,0.0,193.0,1.0,155.0,0.0,2.0,3.0,249.0,411.0,2.0,1017.0,1744252854.9432611,0.0,2025-04-09 22:40:54.943,STOP,35
82.0,11999.288141642588,1037.0315357484264,-57952.57484347521,-54541.78804657317,-33229.71263286026,-30466.344114106196,-7199.228668120942,-20396.056222445517,0.0,0.0,0.0,193.0,1.0,155.0,0.0,2.0,3.0,251.0,411.0,2.0,1019.0,1744252854.94327,0.0,2025-04-09 22:40:54.943,STOP,35
83.0,11932.277611765578,1029.1860734446136,-57987.26475086984,-54542.88328205148,-33256.937057606825,-30501.7492773234,-7030.271831783275,-20422.654798347332,0.0,0.0,0.0,193.0,1.0,155.0,0.0,2.0,3.0,252.0,411.0,2.0,1020.0,1744252854.9432793,0.0,2025-04-09 22:40:54.943,STOP,35
84.0,11876.644119816317,987.7906427133851,-58014.33271340522,-54583.56345696014,-33295.53852028114,-30537.66853066308,-7118.069484003721,-20466.710086668743,0.0,0.0,0.0,193.0,1.0,155.0,0.0,2.0,3.0,251.0,411.0,2.0,1019.0,1744252854.943288,0.0,2025-04-09 22:40:54.943,STOP,35
85.0,11985.966501947225,1003.9956574434826,-58003.223896410935,-54523.59372658655,-33324.260511906214,-30561.160214085605,-7015.206756020398,-20478.601214718965,0.0,0.0,0.0,193.0,1.0,155.0,0.0,2.0,3.0,251.0,411.0,2.0,1019.0,1744252854.9432967,0.0,2025-04-09 22:40:54.943,STOP,35
86.0,11992.22499039471,1017.8090355168624,-57979.82161996623,-54572.47699171031,-33255.7971186396,-30479.33047763473,-7206.6941507690135,-20400.12423993638,0.0,0.0,0.0,193.0,1.0,155.0,0.0,2.0,3.0,252.0,411.0,2.0,1020.0,1744252854.9433053,0.0,2025-04-09 22:40:54.943,STOP,35
87.0,11948.862606151415,1036.1151142257588,-57969.383355305596,-54519.65981956242,-33241.402595210384,-30475.240108399405,-7024.10275031361,-20385.059164173505,0.0,0.0,0.0,193.0,1.0,155.0,0.0,2.0,3.0,251.0,411.0,2.0,1019.0,1744252854.9433143,0.0,2025-04-09 22:40:54.943,STOP,35
88.0,11882.388518141332,998.0724451628263,-58002.598047566185,-54581.574151703615,-33269.74460717972,-30507.71719309297,-7105.194879197465,-20423.481812892176,0.0,0.0,0.0,193.0,1.0,154.0,0.0,2.0,3.0,249.0,410.0,2.0,1017.0,1744252854.943323,0.0,2025-04-09 22:40:54.943,STOP,35
89.0,11961.491341768664,1003.727436510019,-57992.875038728125,-54513.20016541483,-33314.045764690134,-30559.260315806907,-6988.988159774323,-20478.131828085403,0.0,0.0,0.0,193.0,1.0,154.0,0.0,2.0,3.0,249.0,410.0,2.0,1017.0,1744252854.9433317,0.0,2025-04-09 22:40:54.943,STOP,35
90.0,11995.443641596275,1012.9587069700608,-57993.52323931733,-54589.352558774066,-33277.09833110551,-30510.064126260775,-7224.933174244545,-20449.14161552687,0.0,0.0,0.0,193.0,1.0,155.0,0.0,2.0,3.0,251.0,411.0,2.0,1019.0,1744252854.9433403,0.0,2025-04-09 22:40:54.943,STOP,35
91.0,11945.420437505298,1017.5855180723094,-57972.62435825162,-54528.84638653355,-33252.3996534824,-30494.239091186417,-7050.656622726515,-20403.588760326955,0.0,0.0,0.0,193.0,1.0,155.0,0.0,2.0,3.0,250.0,411.0,2.0,1018.0,1744252854.9433491,0.0,2025-04-09 22:40:54.943,STOP,35
92.0,11880.488619862632,1000.598192286276,-58009.929419747525,-54596.57217223313,-33274.19260432632,-30522.826972344756,-7111.609829856137,-20445.23006024719,0.0,0.0,0.0,193.0,1.0,154.0,0.0,2.0,3.0,250.0,410.0,2.0,1018.0,1744252854.9433577,0.0,2025-04-09 22:40:54.943,STOP,35
93.0,11945.196920060745,1006.8790324782173,-57987.44356482549,-54513.98247647077,-33309.28484312115,-30555.77344367188,-7002.153337258499,-20469.772275659117,0.0,0.0,0.0,193.0,1.0,154.0,0.0,2.0,3.0,250.0,410.0,2.0,1018.0,1744252854.9433663,0.0,2025-04-09 22:40:54.943,STOP,35
94.0,12008.944095247281,1017.563166327854,-57993.076204428224,-54579.696605169374,-33284.29559282012,-30514.780344340845,-7178.709766710969,-20437.921039810306,0.0,0.0,0.0,193.0,1.0,155.0,0.0,2.0,3.0,251.0,411.0,2.0,1019.0,1744252854.943375,0.0,2025-04-09 22:40:54.943,STOP,35
95.0,11954.69641145425,1020.982983229516,-57964.08599186969,-54527.7735027997,-33247.54932493559,-30491.8474545297,-7081.278512630286,-20415.099908721437,0.0,0.0,0.0,193.0,1.0,155.0,0.0,2.0,3.0,251.0,411.0,2.0,1019.0,1744252854.9433901,0.0,2025-04-09 22:40:54.943,STOP,35
96.0,11894.123183980368,1009.4718348350328,-58001.81573651025,-54586.402128505964,-33269.83401415754,-30514.154495496095,-7095.471870359406,-20439.262144477623,0.0,0.0,0.0,193.0,1.0,155.0,0.0,2.0,3.0,252.0,411.0,2.0,1020.0,1744252854.9433987,0.0,2025-04-09 22:40:54.943,STOP,35
97.0,11920.11826278189,996.5525265398654,-57984.09080315719,-54523.481967864274,-33301.618194772986,-30540.976588842463,-7024.035695080244,-20452.092045794972,0.0,0.0,0.0,193.0,1.0,155.0,0.0,2.0,3.0,252.0,411.0,2.0,1020.0,1744252854.9434075,0.0,2025-04-09 22:40:54.943,STOP,35
98.0,12011.402787137366,1013.1822244146139,-57997.837125997205,-54572.85697136605,-33303.74161049624,-30538.450841719015,-7136.4873214348945,-20459.892804609874,0.0,0.0,0.0,193.0,1.0,155.0,0.0,2.0,3.0,251.0,411.0,2.0,1019.0,1744252854.9434164,0.0,2025-04-09 22:40:54.943,STOP,35
99.0,11976.310548342533,1024.4475036200886,-57947.2774800393,-54527.952316755334,-33231.992510794706,-30474.726018276935,-7110.514594377827,-20388.166056652793,0.0,0.0,0.0,193.0,1.0,155.0,0.0,2.0,3.0,252.0,411.0,2.0,1020.0,1744252854.943425,0.0,2025-04-09 22:40:54.943,STOP,35
100.0,11920.900573837826,1028.046134477393,-57982.57088453423,-54566.39731721846,-33252.98079883824,-30501.056373245287,-7061.653680998526,-20415.837516288462,0.0,0.0,0.0,193.0,1.0,155.0,0.0,2.0,3.0,252.0,411.0,2.0,1020.0,1744252854.9434338,0.0,2025-04-09 22:40:54.943,STOP,35
101.0,11907.02014053108,998.9441631965832,-57990.10342241567,-54550.01348853273,-33300.38884882794,-30547.61505694569,-7071.667262514504,-20462.776179644607,0.0,0.0,0.0,193.0,1.0,155.0,0.0,2.0,3.0,250.0,411.0,2.0,1018.0,1744252854.9434428,0.0,2025-04-09 22:40:54.943,STOP,35
102.0,12017.393054651388,1023.3969716306892,-57992.65152128357,-54554.863817079524,-33311.54236931114,-30550.23021104696,-7101.126861706599,-20476.410743762346,0.0,0.0,0.0,193.0,1.0,154.0,0.0,2.0,3.0,249.0,410.0,2.0,1017.0,1744252854.943452,0.0,2025-04-09 22:40:54.943,STOP,35
103.0,11987.687586270284,1032.2035589460802,-57946.94220387247,-54544.09027625207,-33230.24907472719,-30474.077817687732,-7158.414382745551,-20401.55475158152,0.0,0.0,0.0,193.0,1.0,155.0,0.0,2.0,3.0,251.0,411.0,2.0,1019.0,1744252854.9434607,0.0,2025-04-09 22:40:54.943,STOP,35
104.0,11929.684809408762,1030.661288578664,-57972.22202685142,-54551.68986936687,-33238.00513005318,-30494.261442930874,-7022.851052624113,-20410.204876685726,0.0,0.0,0.0,193.0,1.0,155.0,0.0,2.0,3.0,252.0,411.0,2.0,1020.0,1744252854.9434693,0.0,2025-04-09 22:40:54.943,STOP,35
105.0,11888.512896122087,988.2600293469465,-57990.30458811577,-54564.49741893976,-33279.646429973414,-30530.42656545956,-7065.654643256026,-20434.680036864287,0.0,0.0,0.0,193.0,1.0,155.0,0.0,2.0,3.0,250.0,411.0,2.0,1018.0,1744252854.943478,0.0,2025-04-09 22:40:54.943,STOP,35
106.0,11991.956769461247,1002.274573120424,-57999.938189976005,-54543.196206473855,-33320.88539849346,-30563.708312953513,-7030.428293994462,-20463.71495291173,0.0,0.0,0.0,193.0,1.0,155.0,0.0,2.0,3.0,252.0,411.0,2.0,1020.0,1744252854.9434867,0.0,2025-04-09 22:40:54.943,STOP,35
107.0,11984.692452513273,1016.4902825939993,-57962.387259291085,-54568.34191898608,-33241.93903707732,-30489.142893450608,-7194.735967485424,-20411.970664497694,0.0,0.0,0.0,193.0,1.0,156.0,0.0,2.0,3.0,252.0,412.0,2.0,1020.0,1744252854.9434955,0.0,2025-04-09 22:40:54.943,STOP,35
108.0,11939.519576969096,1026.6379745767088,-57966.65644248205,-54538.27882269369,-33238.92155157585,-30497.301280176795,-7017.263116510287,-20409.579027840977,0.0,0.0,0.0,193.0,1.0,155.0,0.0,2.0,3.0,250.0,411.0,2.0,1018.0,1744252854.9435043,0.0,2025-04-09 22:40:54.943,STOP,35
109.0,11877.895817505816,985.0637298898375,-57996.786594007805,-54579.94247435838,-33281.65808697439,-30530.493620692927,-7097.729396549392,-20439.91034506683,0.0,0.0,0.0,193.0,1.0,154.0,0.0,2.0,3.0,250.0,410.0,2.0,1018.0,1744252854.9435134,0.0,2025-04-09 22:40:54.943,STOP,35
110.0,11982.457278067743,1006.0520179333708,-57984.87311421313,-54516.150595682935,-33317.42087810289,-30559.8638129072,-6997.52652615625,-20459.021086576115,0.0,0.0,0.0,193.0,1.0,155.0,0.0,2.0,3.0,251.0,411.0,2.0,1019.0,1744252854.9435265,0.0,2025-04-09 22:40:54.943,STOP,35
111.0,12004.876077756415,1027.1967681880915,-57957.715744699926,-54565.34678522906,-33243.43660395582,-30482.66088755857,-7195.562982030271,-20408.126164451383,0.0,0.0,0.0,193.0,1.0,155.0,0.0,2.0,3.0,251.0,411.0,2.0,1019.0,1744252854.9435356,0.0,2025-04-09 22:40:54.943,STOP,35
112.0,11953.914100398315,1028.984907744516,-57959.883863912095,-54524.15252019793,-33242.81075511107,-30494.30614641978,-7016.503157198806,-20417.022158744592,0.0,0.0,0.0,193.0,1.0,155.0,0.0,2.0,3.0,252.0,411.0,2.0,1020.0,1744252854.9435444,0.0,2025-04-09 22:40:54.943,STOP,35
113.0,11883.327291408455,990.6740177481196,-58001.122832432135,-54590.82777390812,-33282.73097070825,-30520.010652543388,-7108.279419932297,-20440.37973170039,0.0,0.0,0.0,193.0,1.0,155.0,0.0,2.0,3.0,250.0,411.0,2.0,1018.0,1744252854.9435532,0.0,2025-04-09 22:40:54.943,STOP,35
114.0,11966.65459473784,1001.3805033422117,-57979.732212988405,-54508.88627873496,-33315.677442035376,-30550.00669360241,-6986.23889520632,-20452.896708595363,0.0,0.0,0.0,193.0,1.0,155.0,0.0,2.0,3.0,251.0,411.0,2.0,1019.0,1744252854.943562,0.0,2025-04-09 22:40:54.943,STOP,35
115.0,12015.76137730615,1028.2249484330355,-57970.38918380609,-54572.58875043259,-33264.51429897718,-30493.12150396365,-7200.368607088162,-20416.351606410935,0.0,0.0,0.0,193.0,1.0,155.0,0.0,2.0,3.0,252.0,411.0,2.0,1020.0,1744252854.9435709,0.0,2025-04-09 22:40:54.943,STOP,35
116.0,11983.194885634766,1055.6058353907868,-57933.46410196592,-54496.63752277345,-33227.52216190364,-30458.588058780202,-7041.0453726107335,-20368.384762809845,0.0,0.0,0.0,193.0,1.0,155.0,0.0,2.0,3.0,251.0,411.0,2.0,1019.0,1744252854.9435797,0.0,2025-04-09 22:40:54.943,STOP,35
117.0,11916.430224946766,1034.1928642026025,-57977.653500754066,-54568.65484340845,-33260.75920590868,-30494.015573741865,-7108.815861799224,-20421.268990191104,0.0,0.0,0.0,193.0,1.0,155.0,0.0,2.0,3.0,251.0,411.0,2.0,1019.0,1744252854.9435885,0.0,2025-04-09 22:40:54.943,STOP,35
118.0,11962.474818524697,1019.5524715843763,-57969.450410538964,-54505.48881357775,-33310.04480243263,-30548.442071490535,-7023.208680535398,-20472.81211290504,0.0,0.0,0.0,193.0,1.0,155.0,0.0,2.0,3.0,251.0,411.0,2.0,1019.0,1744252854.9435973,0.0,2025-04-09 22:40:54.943,STOP,35
119.0,12040.728275862728,1044.6087771187756,-57970.72445997292,-54561.94932007186,-33280.96518289628,-30504.006803513388,-7180.9225894120445,-20434.90355430884,0.0,0.0,0.0,193.0,1.0,155.0,0.0,2.0,3.0,252.0,411.0,2.0,1020.0,1744252854.943606,0.0,2025-04-09 22:40:54.943,STOP,35
120.0,11996.382414863398,1056.3210912133566,-57932.01123857633,-54506.20406940032,-33227.343347948,-30465.7406170059,-7081.122050419099,-20390.244768887136,0.0,0.0,0.0,193.0,1.0,155.0,0.0,2.0,3.0,249.0,411.0,2.0,1017.0,1744252854.9436147,0.0,2025-04-09 22:40:54.943,STOP,35
121.0,11929.64010591985,1041.5018846394878,-57977.54174203178,-54564.877398595505,-33253.62899942744,-30489.724038806446,-7076.070556172199,-20407.634426073364,0.0,0.0,0.0,193.0,1.0,154.0,0.0,2.0,3.0,249.0,410.0,2.0,1017.0,1744252854.9436235,0.0,2025-04-09 22:40:54.943,STOP,35
122.0,11928.477815208176,1003.3474568542788,-57988.270579370335,-54534.65784009193,-33310.33537511055,-30549.358493013206,-7039.279584798764,-20463.357325000445,0.0,0.0,0.0,193.0,1.0,155.0,0.0,2.0,3.0,251.0,411.0,2.0,1019.0,1744252854.9436324,0.0,2025-04-09 22:40:54.943,STOP,35
123.0,12009.52524060312,1013.338686625801,-58008.38714938011,-54581.10476507006,-33321.75711652722,-30547.23507728995,-7141.516463937339,-20466.330107013,0.0,0.0,0.0,193.0,1.0,155.0,0.0,2.0,3.0,249.0,411.0,2.0,1017.0,1744252854.9436412,0.0,2025-04-09 22:40:54.943,STOP,35
124.0,11964.866455181414,1019.6418785621976,-57966.097648870666,-54550.63933737747,-33254.90304886139,-30489.142893450608,-7140.8906150925895,-20414.13878370986,0.0,0.0,0.0,193.0,1.0,154.0,0.0,2.0,3.0,249.0,410.0,2.0,1017.0,1744252854.94365,0.0,2025-04-09 22:40:54.943,STOP,35
125.0,11913.703312123218,1023.0616954638596,-57994.417309095545,-54578.3331487576,-33268.09057809002,-30508.9018355491,-7066.369899078596,-20432.04253101856,0.0,0.0,0.0,193.0,1.0,155.0,0.0,2.0,3.0,251.0,411.0,2.0,1019.0,1744252854.943663,0.0,2025-04-09 22:40:54.943,STOP,35
126.0,11901.611018372896,995.3902358281895,-57992.67387302803,-54559.08829678158,-33301.17115988388,-30543.010597587898,-7069.074460157688,-20457.679981908797,0.0,0.0,0.0,193.0,1.0,155.0,0.0,2.0,3.0,252.0,411.0,2.0,1020.0,1744252854.9436717,0.0,2025-04-09 22:40:54.943,STOP,35
127.0,12013.436795882797,1019.1501401841808,-57994.19379165099,-54554.3273752126,-33315.655090290915,-30556.309885538805,-7066.526361289783,-20471.828636149006,0.0,0.0,0.0,193.0,1.0,155.0,0.0,2.0,3.0,250.0,411.0,2.0,1018.0,1744252854.9436803,0.0,2025-04-09 22:40:54.943,STOP,35
128.0,11984.290121113077,1022.949936741583,-57960.39795403457,-54561.301119482654,-33247.012883068666,-30488.159416694572,-7166.729231682924,-20411.90360926433,0.0,0.0,0.0,193.0,1.0,154.0,0.0,2.0,3.0,250.0,410.0,2.0,1018.0,1744252854.943689,0.0,2025-04-09 22:40:54.943,STOP,35
129.0,11932.50112921013,1031.309489167868,-57982.61558802314,-54561.032898549194,-33260.513336719676,-30506.063164003273,-7045.426314523973,-20427.929810038782,0.0,0.0,0.0,193.0,1.0,155.0,0.0,2.0,3.0,251.0,411.0,2.0,1019.0,1744252854.943698,0.0,2025-04-09 22:40:54.943,STOP,35
130.0,11887.887047277338,993.4009305716671,-58000.787556265306,-54580.389509247485,-33291.71637197928,-30536.595646929225,-7090.666245301515,-20458.417589475823,0.0,0.0,0.0,193.0,1.0,154.0,0.0,2.0,3.0,250.0,410.0,2.0,1018.0,1744252854.9437065,0.0,2025-04-09 22:40:54.943,STOP,35
131.0,12004.1831736783,1018.1666634281473,-57988.56115204825,-54532.087389479566,-33309.55306405462,-30547.033911589853,-7006.422520449462,-20456.003601074648,0.0,0.0,0.0,193.0,1.0,154.0,0.0,2.0,3.0,251.0,410.0,2.0,1019.0,1744252854.943715,0.0,2025-04-09 22:40:54.943,STOP,35
132.0,11994.460164840242,1021.9664599855495,-57962.78959069128,-54572.25347426575,-33242.475478944245,-30481.99033522491,-7184.18594410252,-20405.71217605021,0.0,0.0,0.0,193.0,1.0,155.0,0.0,2.0,3.0,251.0,411.0,2.0,1019.0,1744252854.943724,0.0,2025-04-09 22:40:54.943,STOP,35
133.0,11942.626469448385,1028.4708176220438,-57971.73028847341,-54547.91242455393,-33247.90695284688,-30500.8999110341,-7015.296162998219,-20414.00467324313,0.0,0.0,0.0,193.0,1.0,155.0,0.0,2.0,3.0,252.0,411.0,2.0,1020.0,1744252854.9437325,0.0,2025-04-09 22:40:54.943,STOP,35
134.0,11881.986186741136,990.115224136737,-57999.692320787,-54597.175669333425,-33284.51911026467,-30532.974664327463,-7104.21140244143,-20453.90253709585,0.0,0.0,0.0,193.0,1.0,154.0,0.0,2.0,3.0,250.0,410.0,2.0,1018.0,1744252854.943741,0.0,2025-04-09 22:40:54.943,STOP,35
135.0,11977.182266376289,1000.307619608357,-57988.62820728162,-54530.50041562324,-33324.84165726205,-30572.24667933544,-7004.120290770566,-20491.766392203142,0.0,0.0,0.0,193.0,1.0,154.0,0.0,2.0,3.0,250.0,410.0,2.0,1018.0,1744252854.9876242,0.0,2025-04-09 22:40:54.987,STOP,35
136.0,12007.42417662432,1027.6438030771976,-57962.32020405772,-54580.4342127364,-33252.3996534824,-30486.527739349338,-7209.555174059293,-20415.725757566186,0.0,0.0,0.0,193.0,1.0,155.0,0.0,2.0,3.0,253.0,411.0,2.0,1021.0,1744252854.9876633,0.0,2025-04-09 22:40:54.987,STOP,35
137.0,11955.74694344365,1032.91881476865,-57954.921776643016,-54530.14278771196,-33239.10036553149,-30486.147759693595,-7017.129006043555,-20397.397327112834,0.0,0.0,0.0,193.0,1.0,155.0,0.0,2.0,3.0,252.0,411.0,2.0,1020.0,1744252854.9876752,0.0,2025-04-09 22:40:54.987,STOP,35
138.0,11885.428355387254,1001.8945934646838,-57992.3385968612,-54598.650884467475,-33266.90593563389,-30519.541265909826,-7101.5068413623385,-20446.548813170055,0.0,0.0,0.0,193.0,1.0,154.0,0.0,2.0,3.0,250.0,410.0,2.0,1018.0,1744252854.9876857,0.0,2025-04-09 22:40:54.987,STOP,35
139.0,11958.65267022284,1004.8003202438737,-57971.75264021786,-54515.50239509373,-33299.80770347211,-30549.492603479935,-6972.984310744323,-20450.77329287211,0.0,0.0,0.0,193.0,1.0,154.0,0.0,2.0,3.0,249.0,410.0,2.0,1017.0,1744252854.9877193,0.0,2025-04-09 22:40:54.987,STOP,35
140.0,12009.27937141411,1018.7478087839853,-57970.90327392856,-54584.05519533816,-33257.87583087395,-30495.75900980938,-7174.75350794238,-20410.294283663545,0.0,0.0,0.0,193.0,1.0,154.0,0.0,2.0,3.0,249.0,410.0,2.0,1017.0,1744252854.9877293,0.0,2025-04-09 22:40:54.987,STOP,35
141.0,11956.663364966318,1016.467930849544,-57955.79349467677,-54534.27786043619,-33239.77091786515,-30484.85135851519,-7043.057029611711,-20400.79479227004,0.0,0.0,0.0,193.0,1.0,155.0,0.0,2.0,3.0,252.0,411.0,2.0,1020.0,1744252854.9877386,0.0,2025-04-09 22:40:54.987,STOP,35
142.0,11883.39434664182,989.5564305253542,-58008.3424458912,-54610.00557065077,-33278.39473228392,-30517.50725716439,-7103.294980918763,-20445.05124629155,0.0,0.0,0.0,193.0,1.0,155.0,0.0,2.0,3.0,252.0,411.0,2.0,1020.0,1744252854.9877515,0.0,2025-04-09 22:40:54.987,STOP,35
143.0,11924.610963417408,978.0229303864159,-57991.824506738725,-54540.692811094865,-33316.88443623596,-30557.986266372955,-7016.592564176627,-20477.841255407486,0.0,0.0,0.0,193.0,1.0,154.0,0.0,2.0,3.0,249.0,410.0,2.0,1017.0,1744252854.9877613,0.0,2025-04-09 22:40:54.987,STOP,35
144.0,12008.720577802727,1004.3309336103123,-57992.22683813892,-54589.46431749634,-33293.54921502462,-30521.061184532784,-7160.783667657813,-20454.729551640696,0.0,0.0,0.0,193.0,1.0,154.0,0.0,2.0,3.0,249.0,410.0,2.0,1017.0,1744252855.088651,0.0,2025-04-09 22:40:55.088,STOP,35
145.0,11968.979176161192,1025.118055953748,-57946.94220387247,-54529.919270267404,-33234.67472012934,-30473.966058965452,-7081.569085308205,-20401.688862048253,0.0,0.0,0.0,193.0,1.0,155.0,0.0,2.0,3.0,252.0,411.0,2.0,1020.0,1744252855.0886796,0.0,2025-04-09 22:40:55.088,STOP,35
146.0,11907.757748098105,1018.4125326171556,-57984.85076246867,-54581.55179995916,-33256.57942969554,-30497.99418425491,-7066.928692689979,-20424.487641392665,0.0,0.0,0.0,193.0,1.0,155.0,0.0,2.0,3.0,252.0,411.0,2.0,1020.0,1744252855.0886912,0.0,2025-04-09 22:40:55.088,STOP,35
147.0,11917.592515658442,995.3678840837341,-57974.41249780804,-54537.0718284931,-33287.78246495515,-30538.741414396933,-7018.29129675523,-20458.685810409286,0.0,0.0,0.0,193.0,1.0,155.0,0.0,2.0,3.0,250.0,411.0,2.0,1018.0,1744252855.0887008,0.0,2025-04-09 22:40:55.088,STOP,35
148.0,12021.528127375619,1016.7361517830077,-57980.514524044345,-54561.99402356077,-33292.27516559067,-30533.17583002756,-7086.195896410453,-20453.410798717832,0.0,0.0,0.0,193.0,1.0,154.0,0.0,2.0,3.0,250.0,410.0,2.0,1018.0,1744252855.0887103,0.0,2025-04-09 22:40:55.088,STOP,35
149.0,11989.699243271261,1027.8673205217506,-57932.122997298604,-54530.209842945325,-33221.777763578626,-30465.718265261447,-7115.879013047102,-20391.630577043365,0.0,0.0,0.0,193.0,1.0,155.0,0.0,2.0,3.0,252.0,411.0,2.0,1020.0,1744252855.08872,0.0,2025-04-09 22:40:55.088,STOP,35
150.0,11927.986076830159,1026.9956024879937,-57976.26769259783,-54569.23598876429,-33250.63386567043,-30509.974719282953,-7039.72661968787,-20444.514804424623,0.0,0.0,0.0,193.0,1.0,155.0,0.0,2.0,3.0,251.0,411.0,2.0,1019.0,1744252855.0887291,0.0,2025-04-09 22:40:55.088,STOP,35
151.0,11902.482736406653,992.9315439381056,-57985.83423922471,-54563.60334916155,-33288.92240392237,-30546.922152867577,-7056.244558840342,-20465.52544421261,0.0,0.0,0.0,193.0,1.0,154.0,0.0,3.0,3.0,249.0,410.0,3.0,1017.0,1744252855.0887384,0.0,2025-04-09 22:40:55.088,STOP,35
152.0,12012.766243549138,1016.8255587608289,-57985.70012875797,-54545.789008830674,-33311.676479777874,-30552.33127502576,-7039.212529565398,-20457.456464464245,0.0,0.0,0.0,193.0,1.0,154.0,0.0,12.0,3.0,249.0,410.0,12.0,1017.0,1744252855.0887473,0.0,2025-04-09 22:40:55.088,STOP,35
153.0,11989.453374082254,1025.788608287407,-57947.52334922831,-54552.53923565617,-33240.48617368772,-30475.12834967713,-7167.019804360843,-20398.045527702037,0.0,0.0,0.0,193.0,1.0,155.0,0.0,23.0,3.0,251.0,411.0,23.0,1019.0,1744252855.088756,0.0,2025-04-09 22:40:55.088,STOP,35
154.0,11943.274670037588,1030.7283438120298,-57962.34255580218,-54539.66463084992,-33240.48617368772,-30486.393628882604,-7009.082378039644,-20397.822010257485,0.0,0.0,0.0,193.0,1.0,155.0,0.0,33.0,3.0,250.0,411.0,33.0,1018.0,1744252855.088788,0.0,2025-04-09 22:40:55.088,STOP,35
155.0,11899.532306138553,996.8654509622397,-57979.97808217741,-54562.93279682789,-33271.420988013866,-30517.194332742016,-7068.940349690956,-20431.79666182955,0.0,0.0,0.0,193.0,1.0,155.0,0.0,39.0,3.0,251.0,411.0,39.0,1019.0,1744252855.088797,0.0,2025-04-09 22:40:55.088,STOP,35
156.0,12003.020882966624,1014.6797912931194,-57977.11705888713,-54512.864889248005,-33308.92721520987,-30546.31865576728,-6999.180555245943,-20456.942374341772,0.0,0.0,0.0,193.0,1.0,155.0,0.0,39.0,3.0,252.0,411.0,39.0,1020.0,1744252855.088806,0.0,2025-04-09 22:40:55.088,STOP,35
157.0,12000.629246309907,1020.8712245072395,-57951.41255276353,-54553.209787989836,-33241.4472986993,-30472.960230464963,-7192.143165128608,-20390.825914242974,0.0,0.0,0.0,193.0,1.0,155.0,0.0,39.0,3.0,251.0,411.0,39.0,1019.0,1744252855.0888147,0.0,2025-04-09 22:40:55.088,STOP,35
158.0,11947.74501892865,1029.3201839113456,-57955.10059059866,-54515.25652590472,-33234.58531315152,-30487.08653296072,-7008.2330117503425,-20389.79773399803,0.0,0.0,0.0,193.0,1.0,155.0,0.0,38.0,3.0,249.0,411.0,38.0,1017.0,1744252855.088824,0.0,2025-04-09 22:40:55.088,STOP,35
159.0,11888.624654844363,996.2843056064017,-57981.85562871166,-54562.08343053859,-33255.93122910634,-30514.556826896292,-7073.231884626375,-20411.545981353043,0.0,0.0,0.0,193.0,1.0,155.0,0.0,38.0,3.0,252.0,411.0,38.0,1020.0,1744252855.0888329,0.0,2025-04-09 22:40:55.088,STOP,35
160.0,11985.295949613566,1013.1822244146139,-57967.215236093434,-54483.96408366729,-33291.09052313453,-30551.52661222537,-6958.120400681544,-20444.067769535515,0.0,0.0,0.0,193.0,1.0,155.0,0.0,38.0,3.0,250.0,411.0,38.0,1018.0,1744252855.0888417,0.0,2025-04-09 22:40:55.088,STOP,35
161.0,12011.335731903999,1026.4144571321556,-57960.643823223574,-54544.33614544108,-33240.1956010098,-30483.89023350361,-7183.761260957869,-20399.476039347177,0.0,0.0,0.0,193.0,1.0,154.0,0.0,39.0,3.0,250.0,410.0,39.0,1018.0,1744252855.0888505,0.0,2025-04-09 22:40:55.088,STOP,35
162.0,11963.838274936472,1033.1199804687478,-57950.27261379631,-54483.293531333635,-33226.739850847705,-30470.83681474171,-7017.218413021375,-20364.98729765264,0.0,0.0,0.0,193.0,1.0,155.0,0.0,39.0,3.0,251.0,411.0,39.0,1019.0,1744252855.088859,0.0,2025-04-09 22:40:55.088,STOP,35
163.0,11891.105698478903,1000.4864335639994,-57993.1879631505,-54553.03097403419,-33256.08769131752,-30507.828951815245,-7094.2872279032745,-20406.270969661593,0.0,0.0,0.0,193.0,1.0,155.0,0.0,39.0,3.0,252.0,411.0,39.0,1020.0,1744252855.088868,0.0,2025-04-09 22:40:55.088,STOP,35
164.0,11961.379583046388,1001.402855086667,-57971.30560532876,-54466.507371247695,-33287.51424402169,-30536.260370762393,-6968.960996742368,-20424.733510581675,0.0,0.0,0.0,193.0,1.0,155.0,0.0,39.0,3.0,252.0,411.0,39.0,1020.0,1744252855.0888767,0.0,2025-04-09 22:40:55.088,STOP,35
165.0,12017.147185462378,1023.4863786085104,-57969.29394832778,-54527.10295046603,-33248.53280169163,-30482.12444569164,-7161.096592080187,-20391.630577043365,0.0,0.0,0.0,193.0,1.0,155.0,0.0,40.0,3.0,251.0,411.0,40.0,1019.0,1744252855.0888855,0.0,2025-04-09 22:40:55.088,STOP,35
166.0,11967.638071493873,1029.6331083337197,-57942.8741863816,-54469.88248466045,-33210.82540879553,-30466.254707128373,-7025.846186381124,-20374.64325125733,0.0,0.0,0.0,193.0,1.0,155.0,0.0,40.0,3.0,252.0,411.0,40.0,1020.0,1744252855.0888944,0.0,2025-04-09 22:40:55.088,STOP,35
167.0,11902.661550362296,1011.5505470693764,-57988.71761425944,-54537.31769768211,-33243.235438255724,-30494.775533053344,-7068.850942713135,-20406.338024894958,0.0,0.0,0.0,193.0,1.0,155.0,0.0,40.0,3.0,250.0,411.0,40.0,1018.0,1744252855.0889032,0.0,2025-04-09 22:40:55.088,STOP,35
168.0,11939.832501391471,999.145328896681,-57973.25020709637,-54468.2061038263,-33281.76984569667,-30528.772536369866,-6994.978427288345,-20429.76265308412,0.0,0.0,0.0,193.0,1.0,154.0,0.0,40.0,3.0,250.0,410.0,40.0,1018.0,1744252855.0889122,0.0,2025-04-09 22:40:55.088,STOP,35
169.0,12021.416368653343,1020.468893107044,-57983.21908512343,-54519.83863351806,-33269.87871764645,-30503.090381990718,-7127.434864930495,-20410.070766218993,0.0,0.0,0.0,193.0,1.0,155.0,0.0,40.0,3.0,251.0,411.0,40.0,1019.0,1744252855.5582309,0.0,2025-04-09 22:40:55.558,STOP,35
170.0,11978.188094876778,1027.1744164436361,-57942.0248200923,-54471.44710677232,-33212.43473439631,-30457.64928551308,-7071.77902123678,-20371.17873086676,0.0,0.0,0.0,193.0,1.0,154.0,0.0,41.0,3.0,249.0,410.0,41.0,1017.0,1744252855.5582695,0.0,2025-04-09 22:40:55.558,STOP,35
171.0,11916.877259835872,1018.5466430838875,-57986.32597760272,-54521.62677307449,-33236.57461840804,-30490.483998117925,-7038.005535364811,-20403.879333004872,0.0,0.0,0.0,193.0,1.0,155.0,0.0,41.0,3.0,249.0,411.0,41.0,1017.0,1744252855.5582883,0.0,2025-04-09 22:40:55.558,STOP,35
172.0,11920.162966270802,994.853793961262,-57979.173419377024,-54482.13124062196,-33269.92342113536,-30524.682167134546,-7001.505136669295,-20424.889972792862,0.0,0.0,0.0,193.0,1.0,155.0,0.0,41.0,3.0,251.0,411.0,41.0,1019.0,1744252855.5583055,0.0,2025-04-09 22:40:55.558,STOP,35
173.0,12023.763301821149,1017.049076205382,-57985.36485259114,-54498.58212454106,-33278.99822938421,-30524.235132245438,-7045.53807324625,-20432.08723450747,0.0,0.0,0.0,193.0,1.0,155.0,0.0,41.0,3.0,252.0,411.0,41.0,1020.0,1744252855.558323,0.0,2025-04-09 22:40:55.558,STOP,35
174.0,11995.555400318552,1033.7458293134964,-57936.14631130056,-54471.06712711658,-33207.85262678297,-30446.674578985523,-7091.895591246556,-20359.13114060535,0.0,0.0,0.0,193.0,1.0,155.0,0.0,41.0,3.0,252.0,411.0,41.0,1020.0,1744252855.55834,0.0,2025-04-09 22:40:55.558,STOP,35
175.0,11938.446693235242,1040.3842974167226,-57968.48928552739,-54489.01557791419,-33228.058603770565,-30469.741579263402,-6993.547915643206,-20373.21273961219,0.0,0.0,0.0,193.0,1.0,154.0,0.0,42.0,3.0,249.0,410.0,42.0,1017.0,1744252855.5583572,0.0,2025-04-09 22:40:55.558,STOP,35
176.0,11905.679035863763,999.9052882081614,-57984.60489327966,-54496.16813613989,-33269.945772879815,-30516.36731819717,-7018.492462455329,-20421.738376824665,0.0,0.0,0.0,193.0,1.0,154.0,0.0,42.0,3.0,250.0,410.0,42.0,1018.0,1744252855.5583744,0.0,2025-04-09 22:40:55.558,STOP,35
177.0,12002.551496333062,1003.4368638321,-57998.01593995285,-54492.591857027044,-33304.322755852074,-30551.05722559181,-7001.058101780189,-20469.884034381394,0.0,0.0,0.0,193.0,1.0,155.0,0.0,42.0,3.0,252.0,411.0,42.0,1020.0,1744252855.5583835,0.0,2025-04-09 22:40:55.558,STOP,35
178.0,11989.408670593342,1022.0782187078261,-57950.56318647423,-54497.10690940701,-33217.75444957667,-30457.626933768624,-7131.100551021165,-20388.680146775263,0.0,0.0,0.0,193.0,1.0,154.0,0.0,42.0,3.0,251.0,410.0,42.0,1019.0,1744252855.5583928,0.0,2025-04-09 22:40:55.558,STOP,35
179.0,11942.827635148482,1033.790532802407,-57965.78472444829,-54479.60549349851,-33223.789420579604,-30473.675486287535,-6967.463429863862,-20386.489675818644,0.0,0.0,0.0,193.0,1.0,154.0,0.0,42.0,3.0,249.0,410.0,42.0,1017.0,1744252855.558402,0.0,2025-04-09 22:40:55.558,STOP,35
180.0,11893.564390368985,995.2337736170023,-57988.94113170399,-54515.41298811591,-33254.34425525001,-30506.979585525944,-7023.767474146781,-20411.791850542053,0.0,0.0,0.0,193.0,1.0,154.0,0.0,42.0,3.0,250.0,410.0,42.0,1018.0,1744252855.558411,0.0,2025-04-09 22:40:55.558,STOP,35
181.0,11996.203600907756,1008.4213028456335,-57982.2356083674,-54464.29454854662,-33289.235328344745,-30533.04171956083,-6934.606365514561,-20419.95023726824,0.0,0.0,0.0,193.0,1.0,155.0,0.0,42.0,3.0,251.0,411.0,42.0,1019.0,1744252855.55842,0.0,2025-04-09 22:40:55.558,STOP,35
182.0,11995.622455551918,1011.595250558287,-57964.980061647904,-54518.00579047272,-33228.43858342631,-30467.685218773513,-7146.947937839978,-20378.018364670083,0.0,0.0,0.0,193.0,1.0,154.0,0.0,42.0,3.0,249.0,410.0,42.0,1017.0,1744252855.5584292,0.0,2025-04-09 22:40:55.558,STOP,35
183.0,11945.80041716104,1022.0111634744601,-57964.5330267588,-54476.8115254416,-33223.5435513906,-30475.016590954852,-6964.4459443623955,-20377.19135012524,0.0,0.0,0.0,193.0,1.0,154.0,0.0,43.0,3.0,249.0,410.0,43.0,1017.0,1744252855.5584383,0.0,2025-04-09 22:40:55.558,STOP,35
184.0,11882.455573374698,995.8596224617509,-57992.71857651694,-54532.06503773511,-33249.181002280835,-30498.977661010944,-7048.644965725537,-20412.70827206472,0.0,0.0,0.0,193.0,1.0,155.0,0.0,43.0,3.0,252.0,411.0,43.0,1020.0,1744252855.5584755,0.0,2025-04-09 22:40:55.558,STOP,35
185.0,11974.477705297197,1003.8391952322955,-57975.395974564075,-54454.7503536642,-33287.78246495515,-30535.165135284085,-6931.633583502005,-20447.91226958183,0.0,0.0,0.0,193.0,1.0,155.0,0.0,42.0,3.0,251.0,411.0,42.0,1019.0,1744252855.5584843,0.0,2025-04-09 22:40:55.558,STOP,35
186.0,11998.371720119922,1009.2036139015692,-57976.82648620922,-54530.29924992314,-33246.85642085748,-30480.425713113036,-7161.968310113944,-20411.925961008783,0.0,0.0,0.0,193.0,1.0,155.0,0.0,43.0,3.0,251.0,411.0,43.0,1019.0,1744252855.5584934,0.0,2025-04-09 22:40:55.558,STOP,35
187.0,11951.276594552588,1021.5417768408987,-57959.19095983398,-54470.575388738565,-33228.52799040413,-30474.278983387827,-7001.326322713652,-20398.850190502428,0.0,0.0,0.0,193.0,1.0,154.0,0.0,43.0,3.0,251.0,410.0,43.0,1019.0,1744252855.5585024,0.0,2025-04-09 22:40:55.558,STOP,35
188.0,11894.726681080661,1006.0743696778262,-57989.67873927102,-54531.819168546106,-33245.336502234524,-30491.243957429408,-7061.452515298429,-20414.161135454313,0.0,0.0,0.0,193.0,1.0,155.0,0.0,43.0,3.0,251.0,411.0,43.0,1019.0,1744252855.558511,0.0,2025-04-09 22:40:55.558,STOP,35
189.0,11956.037516121569,1002.7886632428961,-57967.84108493818,-54452.02344084066,-33273.4549967593,-30520.79296359932,-6922.715237464337,-20415.055205232526,0.0,0.0,0.0,193.0,1.0,155.0,0.0,43.0,3.0,252.0,411.0,43.0,1020.0,1744252855.55852,0.0,2025-04-09 22:40:55.558,STOP,35
190.0,12010.396958636877,1012.6010790587759,-57978.256997854354,-54527.50528186623,-33250.03036857014,-30489.500521361893,-7113.353265923652,-20403.23113241567,0.0,0.0,0.0,193.0,1.0,155.0,0.0,43.0,3.0,249.0,411.0,43.0,1017.0,1744252855.558529,0.0,2025-04-09 22:40:55.558,STOP,35
191.0,11971.907254684837,1029.141369955703,-57937.19684328996,-54460.293586289125,-33201.52708310212,-30446.965151663444,-6998.107671512088,-20360.762817950585,0.0,0.0,0.0,193.0,1.0,154.0,0.0,43.0,3.0,249.0,410.0,43.0,1017.0,1744252855.558538,0.0,2025-04-09 22:40:55.558,STOP,35
192.0,11914.865602834894,1023.1287506972255,-57974.36779431913,-54517.067017205605,-33220.86134205596,-30468.534585062815,-7018.358351988596,-20386.690841518743,0.0,0.0,0.0,193.0,1.0,154.0,0.0,43.0,3.0,250.0,410.0,43.0,1018.0,1744252855.5585468,0.0,2025-04-09 22:40:55.558,STOP,35
193.0,11924.968591328692,991.791604970885,-57980.58157927771,-54477.10209811951,-33278.05945611709,-30533.80167887231,-6969.966825242856,-20451.063865550026,0.0,0.0,0.0,193.0,1.0,155.0,0.0,43.0,3.0,252.0,411.0,43.0,1020.0,1744252855.5585556,0.0,2025-04-09 22:40:55.558,STOP,35
194.0,12007.42417662432,1008.4213028456335,-57993.67970152852,-54530.187491200864,-33273.7008659483,-30525.687995635035,-7094.913076748023,-20463.558490700543,0.0,0.0,0.0,193.0,1.0,155.0,0.0,43.0,3.0,251.0,411.0,43.0,1019.0,1744252855.5585647,0.0,2025-04-09 22:40:55.558,STOP,35
195.0,11963.525350514097,1015.2609366489575,-57948.23860505088,-54485.372243567974,-33210.2889669286,-30457.35871283516,-7060.379631564574,-20372.676297745264,0.0,0.0,0.0,193.0,1.0,154.0,0.0,43.0,3.0,249.0,410.0,43.0,1017.0,1744252855.5585735,0.0,2025-04-09 22:40:55.558,STOP,35
196.0,11910.97639929967,1018.5019395949769,-57976.021823408824,-54515.14476718244,-33223.49884790168,-30465.025361183332,-7007.4730524388615,-20364.719076719175,0.0,0.0,0.0,193.0,1.0,155.0,0.0,43.0,3.0,252.0,411.0,43.0,1020.0,1744252855.5585823,0.0,2025-04-09 22:40:55.558,STOP,35
197.0,11895.576047369963,983.9461426670722,-57981.3862420781,-54490.982531426256,-33266.74947342271,-30511.114658250175,-7000.43225293544,-20417.580952355976,0.0,0.0,0.0,193.0,1.0,155.0,0.0,43.0,3.0,252.0,411.0,43.0,1020.0,1744252855.5585916,0.0,2025-04-09 22:40:55.558,STOP,35
198.0,11993.90137122886,997.2230788735246,-57992.807983494764,-54505.533517066666,-33282.41804628588,-30520.681204877044,-7030.160073060999,-20431.014350773617,0.0,0.0,0.0,193.0,1.0,154.0,0.0,43.0,3.0,250.0,410.0,43.0,1018.0,1744252855.5586004,0.0,2025-04-09 22:40:55.558,STOP,35
199.0,11968.353327316443,1009.5612418128541,-57948.88680564008,-54494.93879019485,-33208.567882605545,-30450.720244731936,-7101.59624834016,-20372.005745411607,0.0,0.0,0.0,193.0,1.0,154.0,0.0,43.0,3.0,249.0,410.0,43.0,1017.0,1744252855.558614,0.0,2025-04-09 22:40:55.558,STOP,35
200.0,11923.806300617016,1025.2521664204796,-57966.164704104034,-54497.73275825176,-33213.21704545224,-30463.70660826047,-6981.299159681697,-20375.98435592465,0.0,0.0,0.0,193.0,1.0,155.0,0.0,44.0,3.0,251.0,411.0,44.0,1019.0,1744252855.5586233,0.0,2025-04-09 22:40:55.558,STOP,35
201.0,11883.260236175089,982.5603345108432,-57983.24143686789,-54511.523784580684,-33256.28885701762,-30508.767725082365,-7028.595450949127,-20420.03964424606,0.0,0.0,0.0,193.0,1.0,154.0,0.0,43.0,3.0,249.0,410.0,43.0,1017.0,1744252855.558632,0.0,2025-04-09 22:40:55.558,STOP,35
202.0,11991.219161894222,999.4806050635107,-57982.81675372324,-54485.75222322372,-33287.760113210694,-30534.069899805774,-6993.6149708765715,-20447.800510859553,0.0,0.0,0.0,193.0,1.0,154.0,0.0,43.0,3.0,250.0,410.0,43.0,1018.0,1744252855.5586407,0.0,2025-04-09 22:40:55.558,STOP,35
203.0,11982.636092023384,1010.3882563577005,-57946.115189327626,-54507.70163627883,-33211.38420240691,-30455.8387942122,-7147.730248895914,-20383.3604315949,0.0,0.0,0.0,193.0,1.0,155.0,0.0,43.0,3.0,252.0,411.0,43.0,1020.0,1744252855.55865,0.0,2025-04-09 22:40:55.558,STOP,35
204.0,11934.98217284467,1022.4581983635662,-57960.84498892367,-54488.0097494137,-33218.849685054985,-30472.289678131307,-6982.103822482089,-20387.85313223042,0.0,0.0,0.0,193.0,1.0,155.0,0.0,44.0,3.0,252.0,411.0,44.0,1020.0,1744252855.5586588,0.0,2025-04-09 22:40:55.558,STOP,35
205.0,11874.386593626332,973.7537471954522,-57993.81381199525,-54534.21080520282,-33261.38505475343,-30513.819219329267,-7065.5205327892945,-20435.350589197944,0.0,0.0,0.0,193.0,1.0,155.0,0.0,43.0,3.0,252.0,411.0,43.0,1020.0,1744252855.5586677,0.0,2025-04-09 22:40:55.558,STOP,35
206.0,11982.636092023384,995.5690497838319,-57975.37362281962,-54466.28385380314,-33286.664877732386,-30534.315768994784,-6955.773467513736,-20440.603249144944,0.0,0.0,0.0,193.0,1.0,154.0,0.0,43.0,3.0,249.0,410.0,43.0,1017.0,1744252855.5586762,0.0,2025-04-09 22:40:55.558,STOP,35
207.0,11998.952865475758,1015.9761924715273,-57950.18320681849,-54516.12824393848,-33219.29671994409,-30463.773663493834,-7165.365775271151,-20396.346795123434,0.0,0.0,0.0,193.0,1.0,154.0,0.0,44.0,3.0,249.0,410.0,44.0,1017.0,1744252855.558685,0.0,2025-04-09 22:40:55.558,STOP,35
208.0,11945.152216571834,1019.6642303066529,-57947.59040446168,-54468.65313871541,-33211.853589040475,-30468.154605407075,-6973.341938655608,-20385.439143829244,0.0,0.0,0.0,193.0,1.0,155.0,0.0,44.0,3.0,251.0,411.0,44.0,1019.0,1744252855.558694,0.0,2025-04-09 22:40:55.558,STOP,35
209.0,11869.580968568442,978.0676338753265,-57990.95278870497,-54540.13401748348,-33252.57846743804,-30506.42079191456,-7064.7605734778135,-20420.08434773497,0.0,0.0,0.0,193.0,1.0,155.0,0.0,44.0,3.0,252.0,411.0,44.0,1020.0,1744252855.5587027,0.0,2025-04-09 22:40:55.558,STOP,35
210.0,11957.155103344334,987.1871456130917,-57973.87605594112,-54463.86986540197,-33291.93988942383,-30543.971722599475,-6954.611176802061,-20447.152310270347,0.0,0.0,0.0,193.0,1.0,155.0,0.0,43.0,3.0,249.0,411.0,43.0,1017.0,1744252855.5587115,0.0,2025-04-09 22:40:55.558,STOP,35
211.0,12008.631170824907,1011.9752302140273,-57961.73905870188,-54527.23706093277,-33239.92738007634,-30473.854300243176,-7169.143220084098,-20395.966815467695,0.0,0.0,0.0,193.0,1.0,155.0,0.0,44.0,3.0,251.0,411.0,44.0,1019.0,1744252855.5587206,0.0,2025-04-09 22:40:55.558,STOP,35
212.0,11952.908271897826,1015.6856197936082,-57943.54473871527,-54474.24107482923,-33217.12860073192,-30469.741579263402,-7000.499308168806,-20382.980451939162,0.0,0.0,0.0,193.0,1.0,155.0,0.0,44.0,3.0,252.0,411.0,44.0,1020.0,1744252855.5587296,0.0,2025-04-09 22:40:55.558,STOP,35
213.0,11881.248579174111,988.7517677249632,-57988.49409681489,-54550.46052342183,-33246.00705456818,-30504.923225036055,-7065.297015344741,-20428.57801062799,0.0,0.0,0.0,193.0,1.0,155.0,0.0,44.0,3.0,250.0,411.0,44.0,1018.0,1744252855.5587385,0.0,2025-04-09 22:40:55.558,STOP,35
214.0,11938.357286257422,983.6555699891533,-57971.37266056212,-54475.805696941105,-33285.01084864269,-30545.625751689167,-6972.157296199477,-20467.693563424775,0.0,0.0,0.0,193.0,1.0,155.0,0.0,44.0,3.0,249.0,411.0,44.0,1017.0,1744252855.558751,0.0,2025-04-09 22:40:55.558,STOP,35
215.0,12000.226914909712,994.853793961262,-57980.492172299884,-54540.670459350404,-33267.44237750082,-30510.17588498305,-7154.167551299042,-20450.326257983,0.0,0.0,0.0,193.0,1.0,154.0,0.0,44.0,3.0,249.0,410.0,44.0,1017.0,1744252855.55876,0.0,2025-04-09 22:40:55.558,STOP,35
216.0,11959.144408600856,1012.8692999922396,-57936.70510491194,-54474.73281320725,-33216.41334490936,-30454.22946861142,-7051.148361104532,-20372.07280064497,0.0,0.0,0.0,193.0,1.0,155.0,0.0,44.0,3.0,251.0,411.0,44.0,1019.0,1744252855.5587687,0.0,2025-04-09 22:40:55.558,STOP,35
217.0,11901.253390461612,1013.0034104589714,-57968.57869250521,-54525.091293465055,-33231.09844101649,-30466.7911489953,-7047.39326803604,-20384.053335673016,0.0,0.0,0.0,193.0,1.0,155.0,0.0,44.0,3.0,252.0,411.0,44.0,1020.0,1744252855.5587776,0.0,2025-04-09 22:40:55.558,STOP,35
218.0,11916.676094135773,985.3543025677566,-57963.303680813755,-54479.516086520685,-33275.354895038,-30513.86392281818,-6996.967732544867,-20427.348664682944,0.0,0.0,0.0,193.0,1.0,155.0,0.0,44.0,3.0,252.0,411.0,44.0,1020.0,1744252855.5587864,0.0,2025-04-09 22:40:55.558,STOP,35
219.0,12011.492194115186,1005.336762110801,-57966.879959926606,-54516.61998231649,-33268.44820600131,-30502.241015701416,-7093.951951736445,-20425.4711181487,0.0,0.0,0.0,193.0,1.0,155.0,0.0,44.0,3.0,250.0,411.0,44.0,1018.0,1744252855.5587952,0.0,2025-04-09 22:40:55.558,STOP,35
220.0,11969.716783728218,1013.8974802371837,-57923.85285185014,-54479.851362687514,-33206.55622560457,-30442.226581838917,-7083.983073709378,-20357.70062896021,0.0,0.0,0.0,193.0,1.0,155.0,0.0,44.0,3.0,249.0,411.0,44.0,1017.0,1744252855.558804,0.0,2025-04-09 22:40:55.558,STOP,35
221.0,11913.055111534013,1014.1657011706474,-57962.14139010208,-54516.95525848332,-33229.734984604715,-30470.367428108148,-7029.891852127535,-20387.94253920824,0.0,0.0,0.0,193.0,1.0,155.0,0.0,44.0,3.0,251.0,411.0,44.0,1019.0,1744252855.5588126,0.0,2025-04-09 22:40:55.558,STOP,35
222.0,11887.507067621598,972.0550146168489,-57979.2851780993,-54510.38384561346,-33281.121645107465,-30525.486829934936,-7043.146436589532,-20446.682923636785,0.0,0.0,0.0,193.0,1.0,155.0,0.0,44.0,3.0,251.0,411.0,44.0,1019.0,1744252855.5588214,0.0,2025-04-09 22:40:55.558,STOP,35
223.0,11990.32509211601,991.1434043816811,-57987.24239912539,-54513.66955204839,-33298.08661914904,-30536.640350418136,-7066.816933967702,-20469.414647747835,0.0,0.0,0.0,193.0,1.0,155.0,0.0,44.0,3.0,252.0,411.0,44.0,1020.0,1744252855.55883,0.0,2025-04-09 22:40:55.558,STOP,35
224.0,11965.157027859334,998.9665149410386,-57945.489340482876,-54505.7123310223,-33221.80011532308,-30452.620143010634,-7153.586405943204,-20378.17482688127,0.0,0.0,0.0,193.0,1.0,155.0,0.0,44.0,3.0,249.0,411.0,44.0,1017.0,1744252855.5588388,0.0,2025-04-09 22:40:55.558,STOP,35
225.0,11916.206707502211,1009.6953522795859,-57969.450410538964,-54512.104929936526,-33234.45120268479,-30480.895099746598,-7020.81704387868,-20395.27391138958,0.0,0.0,0.0,193.0,1.0,155.0,0.0,44.0,3.0,251.0,411.0,44.0,1019.0,1744252855.5588474,0.0,2025-04-09 22:40:55.558,STOP,35
226.0,11870.519741835564,971.9879593834829,-57988.04706192578,-54533.36143891352,-33276.33837179403,-30527.14085902463,-7076.741108505858,-20447.398179459356,0.0,0.0,0.0,193.0,1.0,155.0,0.0,44.0,3.0,252.0,411.0,44.0,1020.0,1744252855.5588565,0.0,2025-04-09 22:40:55.558,STOP,35
227.0,11983.686624012784,994.7196834945302,-57979.9333786885,-54491.362511082,-33299.83005521656,-30542.116527809685,-7009.395302462019,-20452.67319115081,0.0,0.0,0.0,193.0,1.0,155.0,0.0,44.0,3.0,251.0,411.0,44.0,1019.0,1744252855.5588653,0.0,2025-04-09 22:40:55.558,STOP,35
228.0,11978.948054188259,1009.2706691349351,-57945.35523001615,-54518.16225268391,-33223.878827557426,-30458.36454133565,-7184.811792947268,-20394.04456544454,0.0,0.0,0.0,193.0,1.0,155.0,0.0,44.0,3.0,250.0,411.0,44.0,1018.0,1744252855.558874,0.0,2025-04-09 22:40:55.558,STOP,35
229.0,11936.792664145549,1026.5709193433427,-57949.75852367384,-54484.746394723225,-33220.660176355865,-30468.22166064044,-7008.724750128359,-20397.576141068475,0.0,0.0,0.0,193.0,1.0,154.0,0.0,44.0,3.0,248.0,410.0,44.0,1016.0,1744252855.5588868,0.0,2025-04-09 22:40:55.558,STOP,35
230.0,11886.523590865565,994.4067590721559,-57968.93632041649,-54520.486834107265,-33244.73300513423,-30485.7454282934,-7078.596303295649,-20408.4167371293,0.0,0.0,0.0,193.0,1.0,155.0,0.0,44.0,3.0,251.0,411.0,44.0,1019.0,1744252855.5588958,0.0,2025-04-09 22:40:55.558,STOP,35
231.0,11982.792554234571,1004.8897272216949,-57960.06267786773,-54455.26444378668,-33285.2567178317,-30523.296358978318,-6972.872552022047,-20445.163005013826,0.0,0.0,0.0,193.0,1.0,155.0,0.0,44.0,3.0,252.0,411.0,44.0,1020.0,1744252855.5589044,0.0,2025-04-09 22:40:55.558,STOP,35
232.0,11995.823621252015,1012.7351895255077,-57947.165721317026,-54516.32940963858,-33228.282121215125,-30453.760081977856,-7187.5610575152705,-20391.384707854355,0.0,0.0,0.0,193.0,1.0,155.0,0.0,44.0,3.0,252.0,411.0,44.0,1020.0,1744252855.5589132,0.0,2025-04-09 22:40:55.558,STOP,35
233.0,11939.65368743583,1019.887747751206,-57942.89653812606,-54468.049641615115,-33218.53676063261,-30458.521003546837,-7001.169860502465,-20374.64325125733,0.0,0.0,0.0,193.0,1.0,155.0,0.0,44.0,3.0,251.0,411.0,44.0,1019.0,1744252855.558922,0.0,2025-04-09 22:40:55.558,STOP,35
234.0,11875.615939571375,994.853793961262,-57978.27934959881,-54529.561642356115,-33248.97983658074,-30490.282832417826,-7085.9723789659,-20418.13974596736,0.0,0.0,0.0,193.0,1.0,155.0,0.0,44.0,3.0,251.0,411.0,44.0,1019.0,1744252855.5589309,0.0,2025-04-09 22:40:55.558,STOP,35
235.0,11949.153178829334,990.6516660036643,-57967.19288434898,-54459.57833046655,-33289.950584167316,-30538.964931841485,-6967.172857185943,-20462.48560696669,0.0,0.0,0.0,193.0,1.0,155.0,0.0,44.0,3.0,252.0,411.0,44.0,1020.0,1744252855.5589397,0.0,2025-04-09 22:40:55.558,STOP,35
236.0,11994.393109606875,1004.4426923325888,-57965.78472444829,-54529.22636618929,-33246.20822026828,-30483.934936992522,-7172.183057330019,-20419.369091912402,0.0,0.0,0.0,193.0,1.0,155.0,0.0,44.0,3.0,251.0,411.0,44.0,1019.0,1744252855.5589545,0.0,2025-04-09 22:40:55.558,STOP,35
237.0,11939.832501391471,1009.5165383239435,-57946.76338991683,-54475.26925507418,-33223.67766185733,-30468.914564718554,-7025.957945103401,-20391.295300876536,0.0,0.0,0.0,193.0,1.0,155.0,0.0,44.0,3.0,250.0,411.0,44.0,1018.0,1744252855.558963,0.0,2025-04-09 22:40:55.558,STOP,35
238.0,11877.87346576136,990.0258171589157,-57983.71082350145,-54541.69863959535,-33248.24222901371,-30489.925204506544,-7077.635178284071,-20419.436147145767,0.0,0.0,0.0,193.0,1.0,154.0,0.0,44.0,3.0,249.0,410.0,44.0,1017.0,1744252855.5589716,0.0,2025-04-09 22:40:55.558,STOP,35
239.0,11918.821861603483,975.7207007075192,-57972.400840807066,-54475.604531241006,-33290.01763940068,-30533.08642304974,-6980.42744164794,-20451.890880094874,0.0,0.0,0.0,193.0,1.0,155.0,0.0,44.0,3.0,249.0,411.0,44.0,1017.0,1744252855.5589805,0.0,2025-04-09 22:40:55.558,STOP,35
240.0,11990.503906071652,990.2046311145582,-57980.80509672226,-54538.7705610717,-33267.084749589536,-30506.17492272555,-7133.715705122436,-20442.324333468,0.0,0.0,0.0,193.0,1.0,155.0,0.0,44.0,3.0,252.0,411.0,44.0,1020.0,1744252855.5589893,0.0,2025-04-09 22:40:55.558,STOP,35
241.0,11954.115266098413,1007.370770856234,-57936.258070022835,-54478.55496150911,-33212.546493118585,-30453.35775057766,-7053.271776827786,-20391.652928787822,0.0,0.0,0.0,193.0,1.0,156.0,0.0,44.0,3.0,252.0,412.0,44.0,1020.0,1744252855.5589979,0.0,2025-04-09 22:40:55.558,STOP,35
242.0,11902.326274195466,1007.2366603895022,-57971.39501230657,-54526.3206394101,-33232.03721428361,-30469.093378674195,-7041.112427844099,-20403.208780671215,0.0,0.0,0.0,193.0,1.0,155.0,0.0,44.0,3.0,250.0,411.0,44.0,1018.0,1744252855.5590072,0.0,2025-04-09 22:40:55.559,STOP,35
243.0,11912.45161443372,980.8616019322399,-57964.01893663633,-54482.84649644453,-33265.00603735519,-30509.527684393848,-6980.472145136851,-20429.829708317484,0.0,0.0,0.0,193.0,1.0,155.0,0.0,44.0,3.0,250.0,411.0,44.0,1018.0,1744252855.559017,0.0,2025-04-09 22:40:55.559,STOP,35
244.0,12001.56801957703,996.2396021174911,-57976.938244931494,-54515.61415381601,-33271.71156069179,-30506.912530292575,-7058.211512352409,-20434.456519419735,0.0,0.0,0.0,193.0,1.0,155.0,0.0,44.0,3.0,251.0,411.0,44.0,1019.0,1744252855.55903,0.0,2025-04-09 22:40:55.559,STOP,35
245.0,11965.805228448538,1005.1579481551586,-57934.69344791096,-54485.68516799035,-33208.23260643871,-30447.65805574156,-7087.6487598000485,-20386.154399651816,0.0,0.0,0.0,193.0,1.0,155.0,0.0,44.0,3.0,252.0,411.0,44.0,1020.0,1744252855.5590389,0.0,2025-04-09 22:40:55.559,STOP,35
246.0,11905.075538763469,995.8372707172956,-57973.920759430024,-54520.64329631845,-33230.71846136075,-30476.380047366627,-7011.362255974085,-20402.42646961528,0.0,0.0,0.0,193.0,1.0,155.0,0.0,44.0,3.0,252.0,411.0,44.0,1020.0,1744252855.5590477,0.0,2025-04-09 22:40:55.559,STOP,35
247.0,11887.68588157724,967.5623139813322,-57976.24534085338,-54507.83574674556,-33265.69894143331,-30511.204065227994,-7026.516738714784,-20428.242734461157,0.0,0.0,0.0,193.0,1.0,155.0,0.0,44.0,3.0,251.0,411.0,44.0,1019.0,1744252855.5590563,0.0,2025-04-09 22:40:55.559,STOP,35
248.0,11991.84501073897,984.5049362784549,-57981.49800080038,-54503.3653978545,-33288.27420333317,-30524.391594456625,-7023.923936357968,-20437.585763643478,0.0,0.0,0.0,193.0,1.0,155.0,0.0,44.0,3.0,251.0,411.0,44.0,1019.0,1744252855.559065,0.0,2025-04-09 22:40:55.559,STOP,35
249.0,11970.342632572965,996.1948986285805,-57942.58361370368,-54507.79104325665,-33217.508580387665,-30448.59682900868,-7142.924623838023,-20381.192312382736,0.0,0.0,0.0,193.0,1.0,155.0,0.0,44.0,3.0,251.0,411.0,44.0,1019.0,1744252855.559074,0.0,2025-04-09 22:40:55.559,STOP,35
250.0,11920.900573837826,1009.0247999459267,-57962.16374184653,-54503.901839721424,-33224.996414780195,-30467.282887373316,-7001.974523302856,-20405.421603372288,0.0,0.0,0.0,193.0,1.0,156.0,0.0,44.0,3.0,252.0,412.0,44.0,1020.0,1744252855.5590825,0.0,2025-04-09 22:40:55.559,STOP,35
251.0,11873.11254419238,967.9646453815277,-57980.71568974444,-54531.57329935709,-33259.88748787493,-30506.867826803667,-7063.911207188512,-20444.268935235614,0.0,0.0,0.0,193.0,1.0,155.0,0.0,44.0,3.0,251.0,411.0,44.0,1019.0,1744252855.5590913,0.0,2025-04-09 22:40:55.559,STOP,35
252.0,11977.495190798663,983.9908461559828,-57975.77595421982,-54490.848420959526,-33290.44232254533,-30536.640350418136,-6986.373005673052,-20455.66832490782,0.0,0.0,0.0,193.0,1.0,155.0,0.0,44.0,3.0,251.0,411.0,44.0,1019.0,1744252855.5591,0.0,2025-04-09 22:40:55.559,STOP,35
253.0,11967.861588938427,988.0141601579381,-57955.74879118786,-54536.46833139281,-33229.48911541571,-30463.773663493834,-7171.199580573986,-20387.786076997054,0.0,0.0,0.0,193.0,1.0,155.0,0.0,44.0,3.0,251.0,411.0,44.0,1019.0,1744252855.5591087,0.0,2025-04-09 22:40:55.559,STOP,35
254.0,11925.84030936245,1005.6273347887201,-57954.295927798266,-54495.02819717267,-33223.5435513906,-30469.003971696377,-7000.0522732797,-20387.160228152305,0.0,0.0,0.0,193.0,1.0,155.0,0.0,44.0,3.0,251.0,411.0,44.0,1019.0,1744252855.5591176,0.0,2025-04-09 22:40:55.559,STOP,35
255.0,11858.494503318609,963.6507587016534,-57988.29293111479,-54551.77927634469,-33256.06533957307,-30511.80756232829,-7079.333910862674,-20441.72083636771,0.0,0.0,0.0,193.0,1.0,155.0,0.0,44.0,3.0,250.0,411.0,44.0,1018.0,1744252855.5591264,0.0,2025-04-09 22:40:55.559,STOP,35
0.0,11956.819827177505,980.0792908763041,-57969.20454134996,-54477.03504288615,-33288.36361031099,-30540.395443486625,-6965.116496696055,-20456.67415340831,0.0,0.0,0.0,193.0,1.0,154.0,0.0,44.0,3.0,249.0,410.0,44.0,1017.0,1744252855.559135,0.0,2025-04-09 22:40:55.559,STOP,35
1.0,11985.631225780395,996.1725468841252,-57955.03353536529,-54537.384752915474,-33234.071223029045,-30467.707570517967,-7187.941037171011,-20395.340966622945,0.0,0.0,0.0,193.0,1.0,154.0,0.0,44.0,3.0,250.0,410.0,44.0,1018.0,1744252855.5591435,0.0,2025-04-09 22:40:55.559,STOP,35
2.0,11948.102646839936,1016.1326546827144,-57932.90530835454,-54474.911627162895,-33208.41142039435,-30458.766872735843,-7004.2991047262085,-20375.7608384801,0.0,0.0,0.0,193.0,1.0,155.0,0.0,44.0,3.0,251.0,411.0,44.0,1019.0,1744252855.5591567,0.0,2025-04-09 22:40:55.559,STOP,35
3.0,11885.026023987059,995.144366639181,-57966.83525643769,-54539.284651194175,-33236.932246319324,-30487.824140527744,-7079.937407962967,-20412.440051131256,0.0,0.0,0.0,193.0,1.0,155.0,0.0,44.0,3.0,252.0,411.0,44.0,1020.0,1744252855.5591657,0.0,2025-04-09 22:40:55.559,STOP,35
4.0,11943.498187482142,983.1638316111364,-57962.00727963535,-54475.71628996328,-33290.46467428979,-30542.63061793216,-6966.859932763569,-20455.33304874099,0.0,0.0,0.0,193.0,1.0,154.0,0.0,44.0,3.0,250.0,410.0,44.0,1018.0,1744252855.5591743,0.0,2025-04-09 22:40:55.559,STOP,35
5.0,11996.985911963691,997.178375384614,-57961.1802650905,-54547.13011349799,-33248.063415058066,-30488.293527161306,-7161.409516502562,-20416.329254666478,0.0,0.0,0.0,193.0,1.0,155.0,0.0,44.0,3.0,251.0,411.0,44.0,1019.0,1744252855.559183,0.0,2025-04-09 22:40:55.559,STOP,35
6.0,11959.189112089767,1020.2230239180356,-57921.41651170451,-54471.17888583885,-33203.605795336465,-30447.814517952746,-7015.206756020398,-20363.512082518588,0.0,0.0,0.0,193.0,1.0,155.0,0.0,44.0,3.0,251.0,411.0,44.0,1019.0,1744252855.5591917,0.0,2025-04-09 22:40:55.559,STOP,35
7.0,11890.703367078706,996.8207474733291,-57966.20940759294,-54540.13401748348,-33235.121755018445,-30477.65409680058,-7059.463210041906,-20398.112582935406,0.0,0.0,0.0,193.0,1.0,155.0,0.0,44.0,3.0,252.0,411.0,44.0,1020.0,1744252855.5592003,0.0,2025-04-09 22:40:55.559,STOP,35
8.0,11935.719780411695,986.8742211907174,-57946.8304451502,-54472.251769572715,-33270.34810428001,-30519.764783354378,-6979.578075358639,-20434.23300197518,0.0,0.0,0.0,193.0,1.0,155.0,0.0,44.0,3.0,250.0,411.0,44.0,1018.0,1744252855.5592089,0.0,2025-04-09 22:40:55.559,STOP,35
9.0,12015.09082497249,1010.5447185688876,-57955.34645978767,-54524.97953474278,-33259.70867391928,-30494.395553397604,-7130.340591709685,-20417.71506282271,0.0,0.0,0.0,193.0,1.0,154.0,0.0,44.0,3.0,249.0,410.0,44.0,1017.0,1744252855.5592177,0.0,2025-04-09 22:40:55.559,STOP,35
10.0,11961.267824324112,1012.6234308032311,-57923.875203594594,-54482.75708946671,-33210.53483611761,-30455.905849445564,-7070.773192736291,-20373.90564369031,0.0,0.0,0.0,193.0,1.0,154.0,0.0,44.0,3.0,248.0,410.0,44.0,1016.0,1744252855.5592265,0.0,2025-04-09 22:40:55.559,STOP,35
11.0,11903.3097509515,1007.4825295785106,-57961.51554125733,-54529.293421422655,-33226.78455433661,-30478.92814623453,-7036.910299886501,-20395.564484067498,0.0,0.0,0.0,193.0,1.0,155.0,0.0,44.0,3.0,251.0,411.0,44.0,1019.0,1744252855.5592353,0.0,2025-04-09 22:40:55.559,STOP,35
12.0,11906.081367263958,978.6487792311644,-57957.76044818884,-54489.931999436856,-33268.87288914596,-30513.148666995607,-7012.502194941306,-20430.522612395598,0.0,0.0,0.0,193.0,1.0,155.0,0.0,44.0,3.0,252.0,411.0,44.0,1020.0,1744252855.559244,0.0,2025-04-09 22:40:55.559,STOP,35
13.0,12002.484441099698,996.4631195620442,-57966.321166315225,-54512.864889248005,-33279.69113346233,-30507.203102970496,-7081.703195774937,-20438.47983342169,0.0,0.0,0.0,193.0,1.0,154.0,0.0,44.0,3.0,251.0,410.0,44.0,1019.0,1744252855.5592527,0.0,2025-04-09 22:40:55.559,STOP,35
14.0,11961.714859213216,999.9946951859827,-57927.60794491863,-54495.76580473969,-33214.89342628639,-30441.466622527438,-7122.6962951059695,-20378.241882114635,0.0,0.0,0.0,193.0,1.0,155.0,0.0,44.0,3.0,251.0,411.0,44.0,1019.0,1744252855.5592616,0.0,2025-04-09 22:40:55.559,STOP,35
15.0,11903.64502711833,996.597230028776,-57964.04128838078,-54522.02910447468,-33234.04887128459,-30468.60164029618,-7028.908375371501,-20403.588760326955,0.0,0.0,0.0,193.0,1.0,155.0,0.0,44.0,3.0,252.0,411.0,44.0,1020.0,1744252855.5592704,0.0,2025-04-09 22:40:55.559,STOP,35
16.0,11882.835553030438,971.04918611636,-57965.74002095938,-54513.80366251513,-33263.374360009955,-30497.18952145452,-7042.878215656068,-20420.71019657972,0.0,0.0,0.0,193.0,1.0,154.0,0.0,44.0,3.0,250.0,410.0,44.0,1018.0,1744252855.5592792,0.0,2025-04-09 22:40:55.559,STOP,35
17.0,11993.811964251037,990.4728520480219,-57966.20940759294,-54498.78329024116,-33285.12260736497,-30518.08840252023,-7016.0561223097,-20434.165946741814,0.0,0.0,0.0,193.0,1.0,155.0,0.0,44.0,3.0,249.0,411.0,44.0,1017.0,1744252855.5592923,0.0,2025-04-09 22:40:55.559,STOP,35
18.0,11973.360118074432,1002.498090564977,-57928.837290863674,-54514.38480787096,-33210.71365007325,-30451.144927876587,-7151.731211153414,-20384.70153626222,0.0,0.0,0.0,193.0,1.0,155.0,0.0,44.0,3.0,249.0,411.0,44.0,1017.0,1744252855.5593014,0.0,2025-04-09 22:40:55.559,STOP,35
19.0,11923.35926572791,1013.1151691812479,-57943.522386970806,-54500.86200247551,-33219.38612692191,-30465.56180305026,-7005.394340204518,-20389.32834736447,0.0,0.0,0.0,193.0,1.0,155.0,0.0,44.0,3.0,252.0,411.0,44.0,1020.0,1744252855.55931,0.0,2025-04-09 22:40:55.559,STOP,35
20.0,11867.412849356277,968.9034186486506,-57971.01503265084,-54537.340049426566,-33262.457938487285,-30503.0009750129,-7082.977245208889,-20419.972589012694,0.0,0.0,0.0,193.0,1.0,154.0,0.0,44.0,3.0,249.0,410.0,44.0,1017.0,1744252855.5593193,0.0,2025-04-09 22:40:55.559,STOP,35
21.0,11973.248359352156,986.4495380460666,-57962.70018371346,-54485.528705779165,-33293.75038072472,-30534.00284457241,-6991.580962131138,-20435.797624087052,0.0,0.0,0.0,193.0,1.0,154.0,0.0,44.0,3.0,249.0,410.0,44.0,1017.0,1744252855.559328,0.0,2025-04-09 22:40:55.559,STOP,35
22.0,11979.328033843998,998.7653492409407,-57935.22988977789,-54528.28759292216,-33221.12956298942,-30456.97873317942,-7183.336577813217,-20383.583949039454,0.0,0.0,0.0,193.0,1.0,155.0,0.0,44.0,3.0,252.0,411.0,44.0,1020.0,1744252855.559337,0.0,2025-04-09 22:40:55.559,STOP,35
23.0,11930.109492553413,1009.5165383239435,-57938.26972702381,-54488.881467447456,-33214.848722797484,-30465.427692583526,-6992.475031909351,-20382.26519611659,0.0,0.0,0.0,193.0,1.0,155.0,0.0,44.0,3.0,252.0,411.0,44.0,1020.0,1744252855.5593455,0.0,2025-04-09 22:40:55.559,STOP,35
24.0,11868.39632611231,977.6429507306756,-57967.774029704815,-54539.95520352784,-33245.895295845905,-30490.03696322882,-7077.702233517437,-20409.131992951872,0.0,0.0,0.0,193.0,1.0,155.0,0.0,45.0,3.0,249.0,411.0,45.0,1017.0,1744252855.559354,0.0,2025-04-09 22:40:55.559,STOP,35
25.0,11959.814960934516,986.6730554906196,-57952.01604986383,-54463.24401655722,-33285.63669748744,-30523.631635145146,-6961.361403627563,-20434.680036864287,0.0,0.0,0.0,193.0,1.0,155.0,0.0,44.0,3.0,251.0,411.0,44.0,1019.0,1744252855.559363,0.0,2025-04-09 22:40:55.559,STOP,35
26.0,11996.248304396666,1006.0073144444602,-57936.43688397847,-54525.49362486525,-33223.36473743495,-30453.715378488945,-7176.496944009894,-20389.79773399803,0.0,0.0,0.0,193.0,1.0,155.0,0.0,44.0,3.0,253.0,411.0,44.0,1021.0,1744252855.5593715,0.0,2025-04-09 22:40:55.559,STOP,35
27.0,11943.453483993231,1012.0199337029379,-57924.433997205975,-54471.268292816676,-33210.13250471741,-30450.608486009656,-7005.953133815901,-20384.32155660648,0.0,0.0,0.0,193.0,1.0,156.0,0.0,44.0,3.0,251.0,412.0,44.0,1019.0,1744252855.5593803,0.0,2025-04-09 22:40:55.559,STOP,35
28.0,11864.618881299362,979.8781251762064,-57973.51842802983,-54549.85702632154,-33248.421042969356,-30482.23620441392,-7088.632236556082,-20418.676187834288,0.0,0.0,0.0,193.0,1.0,155.0,0.0,44.0,3.0,249.0,411.0,44.0,1017.0,1744252855.5593889,0.0,2025-04-09 22:40:55.559,STOP,35
29.0,11931.78587338756,978.984055397994,-57954.988831876384,-54472.07295561707,-33290.33056382305,-30520.725908365956,-6984.920142283457,-20443.95601081324,0.0,0.0,0.0,193.0,1.0,155.0,0.0,44.0,3.0,250.0,411.0,44.0,1018.0,1744252855.5593977,0.0,2025-04-09 22:40:55.559,STOP,35
30.0,11996.158897418845,998.8324044743067,-57956.01701212132,-54540.469293650305,-33259.21693554127,-30481.923279991544,-7181.70490046798,-20426.298132693548,0.0,0.0,0.0,193.0,1.0,155.0,0.0,44.0,3.0,250.0,411.0,44.0,1018.0,1744252855.5594065,0.0,2025-04-09 22:40:55.559,STOP,35
31.0,11949.197882318245,1010.0529801908708,-57920.231869248375,-54477.0573946306,-33216.52510363163,-30448.440366797495,-7056.401021051529,-20375.98435592465,0.0,0.0,0.0,193.0,1.0,155.0,0.0,44.0,3.0,250.0,411.0,44.0,1018.0,1744252855.559415,0.0,2025-04-09 22:40:55.559,STOP,35
32.0,11887.283550177044,999.5029568079659,-57959.43682902299,-54539.776389572195,-33238.80979285357,-30474.435445599014,-7089.369844123107,-20408.550847596034,0.0,0.0,0.0,193.0,1.0,155.0,0.0,44.0,3.0,249.0,411.0,44.0,1017.0,1744252855.559428,0.0,2025-04-09 22:40:55.559,STOP,35
33.0,11912.921001067281,980.2581048319465,-57950.89846264106,-54483.092365633536,-33277.54536599462,-30520.83766708823,-7008.098901283611,-20442.436092190277,0.0,0.0,0.0,193.0,1.0,154.0,0.0,44.0,3.0,249.0,410.0,44.0,1017.0,1744252855.5594368,0.0,2025-04-09 22:40:55.559,STOP,35
34.0,11994.817792751526,998.5418317963877,-57961.984927890895,-54535.35074417004,-33265.900107133406,-30503.827989557743,-7125.825539329713,-20436.021141531604,0.0,0.0,0.0,193.0,1.0,155.0,0.0,44.0,3.0,251.0,411.0,44.0,1019.0,1744252856.0392463,0.0,2025-04-09 22:40:56.039,STOP,35
35.0,11959.479684767686,1011.662305791653,-57915.80622384623,-54484.70169123432,-33204.85749302596,-30441.600732994168,-7084.2512946428415,-20371.46930354468,0.0,0.0,0.0,193.0,1.0,155.0,0.0,44.0,3.0,252.0,411.0,44.0,1020.0,1744252856.0392995,0.0,2025-04-09 22:40:56.039,STOP,35
36.0,11903.823841073972,1009.0247999459267,-57954.81001792074,-54527.684095821875,-33230.40553693838,-30463.907773960567,-7056.356317562619,-20398.425507357777,0.0,0.0,0.0,193.0,1.0,155.0,0.0,45.0,3.0,252.0,411.0,45.0,1020.0,1744252856.0393348,0.0,2025-04-09 22:40:56.039,STOP,35
37.0,11887.976454255158,968.4563837595445,-57964.354212803155,-54507.366360112,-33281.68043871885,-30513.305129206794,-7047.996765136334,-20448.67222889331,0.0,0.0,0.0,193.0,1.0,154.0,0.0,44.0,3.0,250.0,410.0,44.0,1018.0,1744252856.0393696,0.0,2025-04-09 22:40:56.039,STOP,35
38.0,11995.75656601865,994.6526282611643,-57971.551474517764,-54523.03493297517,-33293.079828391055,-30514.780344340845,-7095.985960481878,-20458.417589475823,0.0,0.0,0.0,193.0,1.0,155.0,0.0,44.0,3.0,252.0,411.0,44.0,1020.0,1744252856.0394,0.0,2025-04-09 22:40:56.039,STOP,35
39.0,11965.872283681903,1011.2152709025469,-57929.5748984307,-54508.32748512358,-33222.02363276764,-30451.860183699155,-7157.721478667436,-20403.52170509359,0.0,0.0,0.0,193.0,1.0,155.0,0.0,44.0,3.0,253.0,411.0,44.0,1021.0,1744252856.0394304,0.0,2025-04-09 22:40:56.039,STOP,35
40.0,11905.4108149303,1007.8625092342508,-57962.744887202374,-54527.1700056994,-33241.0449672991,-30473.11669267615,-7052.333003560663,-20405.89099000585,0.0,0.0,0.0,193.0,1.0,155.0,0.0,44.0,3.0,250.0,411.0,44.0,1018.0,1744252856.039461,0.0,2025-04-09 22:40:56.039,STOP,35
41.0,11878.789887284029,977.9782268975052,-57962.47666626891,-54523.03493297517,-33262.68145593184,-30495.535492364826,-7071.890779959057,-20414.831687787973,0.0,0.0,0.0,193.0,1.0,154.0,0.0,44.0,3.0,249.0,410.0,44.0,1017.0,1744252856.0394917,0.0,2025-04-09 22:40:56.039,STOP,35
42.0,11995.309531129544,1000.2852678639017,-57962.14139010208,-54497.620999529485,-33288.609479499995,-30521.61997814417,-7031.568232961683,-20446.101778280947,0.0,0.0,0.0,193.0,1.0,155.0,0.0,44.0,3.0,251.0,411.0,44.0,1019.0,1744252856.0395217,0.0,2025-04-09 22:40:56.039,STOP,35
43.0,11986.61470253643,1014.2551081484686,-57924.791625117265,-54515.07771194908,-33216.458048398265,-30444.104128373165,-7189.863287194167,-20386.40026884082,0.0,0.0,0.0,193.0,1.0,155.0,0.0,44.0,3.0,251.0,411.0,44.0,1019.0,1744252856.039552,0.0,2025-04-09 22:40:56.039,STOP,35
44.0,11932.769350143595,1019.1054366952702,-57935.408703733534,-54494.69292100584,-33210.04309773959,-30454.7882622228,-7006.333113471641,-20370.03879189954,0.0,0.0,0.0,193.0,1.0,155.0,0.0,44.0,3.0,251.0,411.0,44.0,1019.0,1744252856.0395677,0.0,2025-04-09 22:40:56.039,STOP,35
45.0,11878.856942517394,978.7605379534409,-57959.459180767444,-54535.28368893667,-33241.33553997702,-30492.406248141084,-7076.2046666389315,-20419.413795401313,0.0,0.0,0.0,193.0,1.0,154.0,0.0,44.0,3.0,249.0,410.0,44.0,1017.0,1744252856.0395832,0.0,2025-04-09 22:40:56.039,STOP,35
46.0,11973.628339007895,988.3494363247677,-57960.777933690304,-54486.35572032401,-33287.58129925505,-30530.203048015006,-6987.647055107004,-20452.941412084274,0.0,0.0,0.0,193.0,1.0,155.0,0.0,44.0,3.0,252.0,411.0,44.0,1020.0,1744252856.0395987,0.0,2025-04-09 22:40:56.039,STOP,35
47.0,11979.484496055185,999.0112184299492,-57943.90236662655,-54539.41876166091,-33226.896313058896,-30451.726073232425,-7199.85451696569,-20386.55673105201,0.0,0.0,0.0,193.0,1.0,155.0,0.0,44.0,3.0,252.0,411.0,44.0,1020.0,1744252856.0396492,0.0,2025-04-09 22:40:56.039,STOP,35
48.0,11929.55069894203,1006.8566807337619,-57947.70216318395,-54498.179793140866,-33226.4939816587,-30462.27609661533,-7024.125102058066,-20388.680146775263,0.0,0.0,0.0,193.0,1.0,155.0,0.0,44.0,3.0,250.0,411.0,44.0,1018.0,1744252856.0396647,0.0,2025-04-09 22:40:56.039,STOP,35
49.0,11864.77534351055,973.9102094066393,-57982.19090487849,-54557.45661943634,-33256.78059539564,-30491.735695807423,-7112.347437423163,-20425.180545470783,0.0,0.0,0.0,193.0,1.0,154.0,0.0,45.0,3.0,250.0,410.0,45.0,1018.0,1744252856.0396802,0.0,2025-04-09 22:40:56.039,STOP,35
50.0,11948.415571262309,980.9957123989717,-57967.97519540491,-54482.69003423334,-33297.349011582024,-30531.633559660146,-6996.632456378038,-20461.725647655207,0.0,0.0,0.0,193.0,1.0,155.0,0.0,44.0,3.0,250.0,411.0,44.0,1018.0,1744252856.039696,0.0,2025-04-09 22:40:56.039,STOP,35
51.0,11988.022862437114,992.953895682561,-57960.75558194585,-54551.533407155686,-33248.71161564727,-30467.93108796252,-7206.671799024559,-20406.89681850634,0.0,0.0,0.0,193.0,1.0,155.0,0.0,44.0,3.0,251.0,411.0,44.0,1019.0,1744252856.0397117,0.0,2025-04-09 22:40:56.039,STOP,35
52.0,11935.295097267044,1000.3523230972676,-57943.76825615982,-54496.4140053289,-33231.47842067223,-30462.65607627107,-7047.661488969504,-20382.84634147243,0.0,0.0,0.0,193.0,1.0,154.0,0.0,45.0,3.0,249.0,410.0,45.0,1017.0,1744252856.039727,0.0,2025-04-09 22:40:56.039,STOP,35
53.0,11872.531398836541,981.3309885658012,-57974.54660827477,-54558.61891014802,-33250.61151392597,-30483.689067803512,-7110.224021699909,-20408.506144107123,0.0,0.0,0.0,193.0,1.0,154.0,0.0,45.0,3.0,249.0,410.0,45.0,1017.0,1744252856.0397427,0.0,2025-04-09 22:40:56.039,STOP,35
54.0,11937.709085668217,982.2921135773795,-57949.93733762948,-54475.805696941105,-33282.90978466389,-30517.641367631124,-6995.537220899728,-20432.958952541227,0.0,0.0,0.0,193.0,1.0,154.0,0.0,44.0,3.0,250.0,410.0,44.0,1018.0,1744252856.0397582,0.0,2025-04-09 22:40:56.039,STOP,35
55.0,11997.477650341709,999.1229771522258,-57959.50388425635,-54544.09027625207,-33263.41906349886,-30483.443198614503,-7181.302569067785,-20419.816126801506,0.0,0.0,0.0,193.0,1.0,155.0,0.0,44.0,3.0,250.0,411.0,44.0,1018.0,1744252856.0397737,0.0,2025-04-09 22:40:56.039,STOP,35
56.0,11945.152216571834,1002.9898289429938,-57929.820767619705,-54491.5636767821,-33223.163571734854,-30457.805747724266,-7080.987939952367,-20391.250597387625,0.0,0.0,0.0,193.0,1.0,154.0,0.0,44.0,3.0,249.0,410.0,44.0,1017.0,1744252856.0397892,0.0,2025-04-09 22:40:56.039,STOP,35
57.0,11889.585779855941,994.1832416276028,-57961.51554125733,-54546.45956116433,-33232.90893231737,-30482.683239303024,-7082.574913808694,-20416.776289555586,0.0,0.0,0.0,193.0,1.0,154.0,0.0,45.0,3.0,250.0,410.0,45.0,1018.0,1744252856.0398047,0.0,2025-04-09 22:40:56.039,STOP,35
58.0,11911.44578593323,973.6196367287204,-57950.51848298532,-54491.69778724883,-33273.11972059247,-30520.167114754575,-7016.503157198806,-20437.876336321395,0.0,0.0,0.0,193.0,1.0,155.0,0.0,44.0,3.0,251.0,411.0,44.0,1019.0,1744252856.03982,0.0,2025-04-09 22:40:56.039,STOP,35
59.0,12004.674912056316,998.8771079632173,-57954.31827954272,-54529.159310955925,-33266.05656934459,-30502.218663956963,-7129.960612053945,-20434.635333375376,0.0,0.0,0.0,193.0,1.0,155.0,0.0,44.0,3.0,252.0,411.0,44.0,1020.0,1744252856.0398352,0.0,2025-04-09 22:40:56.039,STOP,35
60.0,11968.263920338622,1014.1657011706474,-57906.08321500817,-54482.42181329988,-33202.197635435776,-30441.332512060704,-7118.270649703819,-20378.688917003743,0.0,0.0,0.0,193.0,1.0,155.0,0.0,44.0,3.0,250.0,411.0,44.0,1018.0,1744252856.0398507,0.0,2025-04-09 22:40:56.039,STOP,35
61.0,11900.314617194488,1005.1802998996139,-57950.51848298532,-54526.03006673218,-33230.025557282635,-30471.26149788636,-7067.129858390076,-20401.018309714593,0.0,0.0,0.0,193.0,1.0,155.0,0.0,45.0,3.0,248.0,411.0,45.0,1016.0,1744252856.0398664,0.0,2025-04-09 22:40:56.039,STOP,35
62.0,11889.898704278316,978.7828896978963,-57946.91985212801,-54500.482022819764,-33263.642580943415,-30504.453838402493,-7053.763515205803,-20430.030874017582,0.0,0.0,0.0,193.0,1.0,155.0,0.0,44.0,3.0,252.0,411.0,44.0,1020.0,1744252856.0399563,0.0,2025-04-09 22:40:56.039,STOP,35
63.0,12007.200659179767,1005.3814655997116,-57946.65163119455,-54500.012636186206,-33275.93604039383,-30509.348870438203,-7078.082213173177,-20446.90644108134,0.0,0.0,0.0,193.0,1.0,155.0,0.0,44.0,3.0,250.0,411.0,44.0,1018.0,1744252856.0399652,0.0,2025-04-09 22:40:56.039,STOP,35
64.0,11981.18322863379,1015.8644337492507,-57906.59730513064,-54491.22840061527,-33206.6903360713,-30434.247009068375,-7159.531969968316,-20375.716134991188,0.0,0.0,0.0,193.0,1.0,155.0,0.0,44.0,3.0,249.0,411.0,44.0,1017.0,1744252856.0399745,0.0,2025-04-09 22:40:56.039,STOP,35
65.0,11931.271783265089,1031.82357929034,-57928.23379376338,-54493.24005761625,-33213.32880417452,-30446.7863377078,-7029.489520727339,-20366.21664359768,0.0,0.0,0.0,193.0,1.0,155.0,0.0,44.0,3.0,251.0,411.0,44.0,1019.0,1744252856.0399833,0.0,2025-04-09 22:40:56.039,STOP,35
66.0,11891.01629150108,989.3105613363459,-57946.450465494454,-54509.89210723545,-33254.63482792793,-30489.768742295357,-7073.008367181822,-20415.770461055097,0.0,0.0,0.0,193.0,1.0,154.0,0.0,45.0,3.0,250.0,410.0,45.0,1018.0,1744252856.0399923,0.0,2025-04-09 22:40:56.039,STOP,35
67.0,12008.765281291639,1018.0102012169601,-57939.543776457765,-54474.486944018245,-33278.104159606,-30505.23614945843,-7021.241727023331,-20428.108623994427,0.0,0.0,0.0,193.0,1.0,154.0,0.0,44.0,3.0,248.0,410.0,44.0,1016.0,1744252856.0400012,0.0,2025-04-09 22:40:56.040,STOP,35
68.0,11989.118097915423,1019.597175073287,-57917.102625024636,-54513.04370320365,-33215.87690304242,-30443.72414871742,-7189.66212149407,-20388.255463630612,0.0,0.0,0.0,193.0,1.0,154.0,0.0,44.0,3.0,249.0,410.0,44.0,1017.0,1744252856.04001,0.0,2025-04-09 22:40:56.040,STOP,35
69.0,11927.516690196597,1014.7468465264853,-57941.33191601419,-54503.65597053242,-33229.48911541571,-30474.726018276935,-7039.279584798764,-20410.69661506374,0.0,0.0,0.0,193.0,1.0,154.0,0.0,45.0,3.0,251.0,410.0,45.0,1019.0,1744252856.0400188,0.0,2025-04-09 22:40:56.040,STOP,35
70.0,11871.480866847143,976.2347908299913,-57964.68948896998,-54543.41972391841,-33257.071168073555,-30498.150646466096,-7115.208460713442,-20425.64993210434,0.0,0.0,0.0,193.0,1.0,155.0,0.0,45.0,3.0,251.0,411.0,45.0,1019.0,1744252856.0400276,0.0,2025-04-09 22:40:56.040,STOP,35
71.0,11973.337766329976,992.4174538156336,-57952.28427079729,-54477.12444986397,-33288.58712775554,-30528.951350325508,-7007.227183249854,-20451.488548694677,0.0,0.0,0.0,193.0,1.0,155.0,0.0,44.0,3.0,252.0,411.0,44.0,1020.0,1744252856.0400364,0.0,2025-04-09 22:40:56.040,STOP,35
72.0,11976.198789620255,999.5253085524213,-57944.41645674902,-54542.79387507366,-33234.51825791815,-30463.25957337136,-7222.899165499111,-20403.164077182304,0.0,0.0,0.0,193.0,1.0,154.0,0.0,44.0,3.0,249.0,410.0,44.0,1017.0,1744252856.0400453,0.0,2025-04-09 22:40:56.040,STOP,35
73.0,11923.381617472365,1005.7390935109966,-57938.24737527936,-54495.98932218425,-33227.11983050345,-30466.768797250847,-7040.307765043708,-20391.3623561099,0.0,0.0,0.0,193.0,1.0,154.0,0.0,44.0,3.0,249.0,410.0,44.0,1017.0,1744252856.040054,0.0,2025-04-09 22:40:56.040,STOP,35
